timestamps,TP9,AF7,AF8,TP10
1641303832.537,7.812,-31.250,-23.438,-20.020
1641303832.541,-117.188,-28.809,-21.484,39.062
1641303832.545,-95.215,-31.250,-27.344,24.902
1641303832.549,42.969,-34.668,-35.645,-32.227
1641303832.553,111.328,-27.344,-35.645,-65.430
1641303832.557,18.555,-30.762,-31.738,-14.648
1641303832.561,-118.652,-33.691,-36.621,39.062
1641303832.564,-127.930,-32.715,-40.039,33.691
1641303832.568,2.930,-37.598,-35.156,-11.719
1641303832.572,104.004,-29.785,-30.273,-76.660
1641303832.576,41.992,-24.902,-26.855,-51.270
1641303832.580,-109.375,-32.227,-27.344,13.184
1641303832.586,-144.043,-31.250,-28.809,6.348
1641303832.590,-8.301,-33.691,-20.996,-42.969
1641303832.594,104.980,-39.551,-21.973,-89.355
1641303832.598,44.922,-40.527,-20.508,-61.523
1641303832.602,-102.539,-38.086,-8.789,5.371
1641303832.606,-145.020,-39.062,-10.742,18.555
1641303832.610,-29.785,-43.945,-20.508,-29.785
1641303832.613,89.355,-50.781,-28.809,-79.590
1641303832.617,74.219,-40.039,-16.602,-50.293
1641303832.621,-66.406,-33.203,-9.277,16.602
1641303832.625,-137.207,-36.621,-15.137,38.574
1641303832.629,-41.504,-40.527,-17.578,-1.465
1641303832.628,89.844,-44.434,-18.555,-71.289
1641303832.632,83.984,-40.527,-14.160,-51.270
1641303832.636,-61.523,-45.410,-14.160,27.832
1641303832.640,-152.832,-41.016,-11.719,49.805
1641303832.644,-72.754,-37.598,-16.113,6.348
1641303832.648,79.590,-42.480,-24.414,-57.129
1641303832.652,90.332,-46.875,-23.438,-62.988
1641303832.655,-56.152,-53.711,-27.344,6.348
1641303832.659,-140.625,-40.527,-25.879,42.969
1641303832.663,-58.594,-28.809,-26.367,25.879
1641303832.667,74.707,-33.691,-27.832,-44.434
1641303832.671,91.797,-36.133,-18.066,-79.102
1641303832.673,-41.992,-35.645,-9.277,-16.602
1641303832.677,-152.344,-38.086,-8.789,37.109
1641303832.681,-112.793,-44.922,-17.578,14.160
1641303832.685,33.203,-42.480,-20.508,-57.617
1641303832.689,104.980,-40.039,-22.461,-78.613
1641303832.693,-0.977,-42.480,-29.297,-10.742
1641303832.697,-138.672,-48.828,-27.344,44.434
1641303832.700,-106.445,-41.504,-13.672,25.391
1641303832.704,47.363,-33.203,-13.672,-34.180
1641303832.708,110.352,-39.551,-22.461,-72.754
1641303832.712,14.648,-44.922,-21.973,-32.227
1641303832.716,-115.723,-41.992,-20.020,27.344
1641303832.717,-118.164,-42.480,-22.461,13.672
1641303832.721,19.043,-43.457,-25.391,-39.062
1641303832.725,109.375,-37.598,-27.832,-77.637
1641303832.729,29.785,-37.109,-29.297,-46.387
1641303832.733,-96.680,-31.250,-19.043,20.020
1641303832.737,-110.352,-33.203,-17.090,33.203
1641303832.741,-1.465,-45.410,-22.461,-8.789
1641303832.744,106.934,-37.598,-26.367,-72.754
1641303832.748,60.547,-31.250,-24.414,-52.734
1641303832.752,-85.938,-38.574,-24.902,31.738
1641303832.756,-124.512,-34.668,-29.297,38.574
1641303832.760,2.441,-25.391,-17.578,-20.020
1641303832.781,121.582,-33.691,-14.160,-61.035
1641303832.785,79.102,-37.109,-23.438,-35.645
1641303832.789,-57.129,-29.297,-17.090,29.297
1641303832.793,-111.816,-27.344,-14.648,34.668
1641303832.797,-24.902,-35.156,-23.926,-21.973
1641303832.801,98.145,-37.109,-26.855,-76.172
1641303832.805,82.031,-29.297,-21.973,-74.219
1641303832.808,-59.570,-28.809,-20.020,-10.742
1641303832.812,-130.859,-29.297,-16.602,26.855
1641303832.816,-55.176,-39.062,-19.043,-8.789
1641303832.820,79.102,-40.039,-19.043,-79.590
1641303832.824,87.891,-37.598,-19.043,-88.379
1641303832.822,-45.898,-40.039,-19.531,-12.695
1641303832.826,-138.184,-32.715,-16.113,38.086
1641303832.830,-63.477,-30.273,-14.648,1.465
1641303832.834,82.031,-28.809,-5.371,-62.012
1641303832.838,102.051,-28.320,-2.930,-59.082
1641303832.842,-23.926,-34.180,-13.184,-5.371
1641303832.846,-132.812,-38.574,-20.508,28.320
1641303832.849,-77.637,-36.133,-15.625,10.742
1641303832.853,63.965,-39.551,-20.020,-40.527
1641303832.857,104.004,-45.410,-28.809,-61.035
1641303832.861,0.000,-38.086,-19.043,-16.113
1641303832.865,-126.953,-36.621,-11.719,31.738
1641303832.869,-110.352,-47.363,-19.531,9.277
1641303832.873,45.898,-41.992,-16.113,-45.898
1641303832.877,116.211,-34.668,-20.996,-71.777
1641303832.881,5.859,-36.621,-27.344,-15.137
1641303832.885,-131.348,-38.086,-18.555,39.551
1641303832.889,-122.070,-40.527,-21.484,20.020
1641303832.893,20.996,-42.480,-28.320,-39.551
1641303832.896,102.539,-40.527,-35.156,-83.984
1641303832.900,24.414,-51.758,-36.621,-22.949
1641303832.904,-93.750,-47.852,-21.973,50.293
1641303832.908,-115.723,-22.461,-21.484,22.461
1641303832.912,7.324,-22.949,-25.391,-37.598
1641303832.913,122.559,-32.227,-28.320,-65.918
1641303832.917,57.617,-28.320,-23.438,-34.180
1641303832.921,-91.309,-28.320,-18.555,27.832
1641303832.925,-126.465,-32.715,-29.785,40.039
1641303832.929,-15.137,-32.715,-35.156,-8.301
1641303832.933,97.168,-33.691,-33.203,-65.430
1641303832.937,61.035,-26.367,-29.785,-40.039
1641303832.940,-78.613,-23.926,-27.832,39.062
1641303832.944,-132.812,-38.574,-30.273,59.570
1641303832.948,-21.973,-29.785,-20.508,0.000
1641303832.952,110.352,-29.785,-19.043,-74.219
1641303832.956,92.773,-38.574,-26.367,-55.176
1641303832.959,-48.828,-27.344,-28.809,20.020
1641303832.963,-129.395,-27.832,-29.785,39.551
1641303832.967,-39.062,-28.320,-23.438,11.719
1641303832.971,97.168,-26.855,-27.832,-49.316
1641303832.975,104.004,-22.461,-22.949,-52.734
1641303832.979,-35.156,-22.949,-13.184,16.602
1641303832.983,-131.836,-29.785,-21.484,41.992
1641303832.986,-61.523,-36.133,-26.367,24.414
1641303832.990,87.402,-30.273,-17.578,-37.109
1641303832.994,105.957,-32.715,-16.113,-62.988
1641303832.998,-26.855,-42.969,-28.320,1.953
1641303833.002,-132.812,-41.992,-32.715,44.434
1641303833.003,-77.637,-37.109,-29.297,19.531
1641303833.007,75.195,-34.668,-26.367,-41.504
1641303833.011,110.352,-41.504,-26.855,-71.777
1641303833.015,-3.418,-38.086,-19.043,-14.160
1641303833.019,-117.676,-41.992,-15.137,33.691
1641303833.023,-91.309,-45.898,-21.484,19.531
1641303833.027,53.711,-45.410,-36.621,-36.621
1641303833.030,110.352,-44.922,-41.016,-60.547
1641303833.034,12.695,-31.250,-27.832,-23.926
1641303833.038,-110.840,-30.273,-16.602,25.391
1641303833.042,-102.051,-38.086,-18.066,30.762
1641303833.046,37.598,-34.180,-25.391,-37.598
1641303833.065,112.793,-30.273,-26.367,-82.031
1641303833.069,27.344,-31.250,-26.855,-22.461
1641303833.073,-108.398,-36.133,-21.973,44.922
1641303833.077,-124.023,-33.691,-16.602,35.156
1641303833.081,4.395,-36.621,-27.832,-31.250
1641303833.085,98.145,-46.387,-39.062,-80.566
1641303833.089,24.414,-52.734,-39.551,-42.969
1641303833.092,-116.699,-44.434,-27.832,20.508
1641303833.096,-141.113,-32.227,-24.414,27.344
1641303833.100,-16.113,-35.645,-28.809,-23.438
1641303833.104,106.934,-35.645,-27.832,-75.195
1641303833.108,61.035,-32.227,-17.578,-60.059
1641303833.093,-90.820,-32.227,-10.742,5.859
1641303833.097,-136.230,-29.297,-16.602,33.203
1641303833.101,-27.344,-34.180,-15.625,-14.648
1641303833.105,99.121,-34.668,-19.043,-78.613
1641303833.109,82.031,-32.715,-31.250,-62.988
1641303833.113,-58.594,-38.574,-34.180,17.090
1641303833.117,-125.488,-41.992,-21.484,43.457
1641303833.120,-33.203,-38.086,-22.461,-10.254
1641303833.124,94.727,-41.016,-28.320,-77.148
1641303833.128,79.590,-47.363,-32.227,-70.801
1641303833.132,-65.430,-39.551,-24.414,7.812
1641303833.136,-141.113,-32.715,-7.812,35.645
1641303833.154,-51.758,-38.574,-11.230,-3.906
1641303833.158,93.262,-46.875,-13.672,-58.105
1641303833.162,110.840,-40.527,-16.602,-72.754
1641303833.166,-31.250,-35.156,-19.531,-4.883
1641303833.170,-141.602,-40.039,-14.160,45.410
1641303833.174,-70.312,-41.504,-15.137,21.973
1641303833.178,82.031,-38.574,-18.066,-51.758
1641303833.181,124.023,-32.227,-13.184,-71.777
1641303833.185,1.465,-33.691,-6.348,3.906
1641303833.189,-127.930,-41.992,-0.977,59.082
1641303833.193,-86.914,-33.691,1.465,35.645
1641303833.197,62.500,-26.367,-3.906,-29.297
1641303833.199,110.352,-34.180,-10.254,-58.594
1641303833.203,7.324,-41.016,-16.113,-9.277
1641303833.207,-106.934,-39.062,-17.090,49.316
1641303833.211,-84.473,-33.691,-14.160,34.668
1641303833.215,56.152,-36.133,-10.742,-27.344
1641303833.219,132.812,-34.180,-7.812,-58.594
1641303833.223,34.668,-28.320,-5.859,-12.207
1641303833.226,-116.211,-34.180,-15.137,34.180
1641303833.230,-133.301,-48.828,-28.809,23.926
1641303833.234,3.906,-52.246,-33.691,-25.879
1641303833.238,109.863,-36.621,-22.461,-87.891
1641303833.242,34.180,-39.062,-26.367,-60.547
1641303833.244,-110.840,-42.480,-26.367,8.301
1641303833.248,-125.977,-38.574,-12.207,14.648
1641303833.252,2.930,-31.250,-10.742,-33.691
1641303833.256,104.980,-25.879,-20.508,-78.125
1641303833.260,55.664,-27.344,-20.508,-48.340
1641303833.264,-83.984,-25.879,-22.949,14.648
1641303833.268,-124.512,-29.785,-26.367,21.973
1641303833.271,-21.484,-36.621,-35.645,-24.414
1641303833.275,90.332,-44.922,-45.410,-67.871
1641303833.279,66.406,-43.457,-29.297,-52.734
1641303833.283,-73.730,-32.227,-21.484,6.836
1641303833.287,-145.996,-37.109,-23.438,32.715
1641303833.287,-50.293,-45.410,-21.973,-11.230
1641303833.291,83.984,-38.574,-29.297,-81.543
1641303833.295,83.496,-29.297,-22.461,-64.453
1641303833.299,-65.918,-34.180,-22.949,12.207
1641303833.303,-150.391,-35.156,-26.367,41.504
1641303833.307,-60.059,-31.738,-28.320,1.465
1641303833.311,80.078,-35.645,-27.832,-71.777
1641303833.314,94.238,-41.016,-31.738,-75.195
1641303833.318,-28.320,-45.410,-46.387,19.531
1641303833.322,-113.770,-31.250,-33.691,52.734
1641303833.326,-70.801,-25.879,-12.207,-11.719
1641303833.330,64.453,-37.598,-11.719,-65.430
1641303833.334,104.492,-39.551,-17.578,-71.289
1641303833.338,-23.438,-35.645,-15.625,-12.207
1641303833.342,-136.230,-41.016,-17.090,39.062
1641303833.346,-98.633,-51.270,-19.043,15.625
1641303833.350,33.203,-52.734,-15.625,-55.176
1641303833.354,88.867,-49.805,-17.578,-76.172
1641303833.358,-16.602,-51.758,-19.043,-11.719
1641303833.361,-133.789,-53.223,-16.113,54.199
1641303833.365,-101.562,-45.410,-10.742,37.109
1641303833.369,45.410,-38.086,-7.812,-21.484
1641303833.373,116.211,-38.086,-10.742,-46.875
1641303833.377,14.160,-43.945,-13.184,-4.395
1641303833.379,-115.723,-41.992,-8.301,55.176
1641303833.383,-99.121,-34.180,-3.906,51.758
1641303833.387,43.457,-34.668,-4.883,-7.324
1641303833.391,132.812,-37.598,-12.207,-50.781
1641303833.395,55.664,-32.715,-12.207,-2.441
1641303833.399,-90.820,-32.715,-10.742,56.152
1641303833.403,-114.746,-41.016,-17.578,54.688
1641303833.406,9.766,-46.387,-23.438,10.742
1641303833.410,124.023,-31.738,-10.254,-48.828
1641303833.414,73.242,-20.996,-9.766,-34.668
1641303833.418,-82.031,-24.902,-23.926,30.762
1641303833.422,-128.906,-21.973,-21.484,36.621
1641303833.425,-7.324,-21.973,-20.020,-20.020
1641303833.429,112.305,-25.879,-16.602,-62.012
1641303833.433,58.594,-27.832,-17.578,-24.414
1641303833.437,-90.820,-27.344,-17.578,25.879
1641303833.441,-137.695,-26.367,-16.113,30.762
1641303833.445,-44.922,-36.133,-21.973,-4.883
1641303833.449,68.848,-41.016,-26.367,-69.824
1641303833.452,61.523,-32.715,-28.320,-75.684
1641303833.456,-70.801,-29.785,-20.996,-5.371
1641303833.460,-147.461,-31.738,-19.531,32.227
1641303833.464,-53.711,-36.133,-28.809,-9.766
1641303833.468,89.844,-40.527,-33.203,-71.777
1641303833.467,95.703,-37.598,-37.109,-66.895
1641303833.471,-42.969,-37.109,-30.762,-3.418
1641303833.475,-129.883,-39.062,-22.949,30.273
1641303833.479,-59.082,-42.969,-26.367,-0.977
1641303833.483,83.008,-45.898,-25.391,-62.988
1641303833.487,110.352,-43.457,-22.461,-64.453
1641303833.491,-23.926,-44.922,-34.668,13.184
1641303833.494,-124.512,-42.969,-30.762,47.363
1641303833.498,-62.500,-39.062,-14.648,11.230
1641303833.502,81.543,-38.086,-20.508,-48.828
1641303833.506,137.207,-29.297,-23.926,-65.918
1641303833.510,24.902,-27.344,-15.625,-6.836
1641303833.529,-102.539,-27.832,-4.395,35.645
1641303833.533,-67.383,-26.367,-5.371,20.508
1641303833.537,76.660,-29.297,-18.066,-44.922
1641303833.541,134.277,-32.227,-30.273,-88.379
1641303833.545,37.598,-36.133,-20.020,-20.996
1641303833.549,-97.168,-41.992,-10.742,51.758
1641303833.553,-96.191,-34.668,-16.113,32.227
1641303833.556,40.039,-27.832,-18.066,-37.598
1641303833.560,122.070,-34.180,-19.531,-69.336
1641303833.564,27.344,-39.551,-25.391,-13.184
1641303833.568,-107.422,-28.320,-16.602,37.598
1641303833.572,-113.281,-25.391,-4.883,34.668
1641303833.573,17.578,-33.203,-15.137,-21.973
1641303833.577,119.141,-29.297,-18.066,-76.660
1641303833.581,47.852,-23.438,-14.648,-40.039
1641303833.585,-102.051,-28.320,-15.137,29.297
1641303833.589,-127.441,-32.227,-19.531,40.527
1641303833.593,26.367,-33.691,-31.738,1.953
1641303833.597,151.855,-31.738,-36.621,-46.387
1641303833.600,62.988,-37.109,-21.484,-60.059
1641303833.604,-109.863,-42.480,-8.301,-3.418
1641303833.608,-186.523,-54.688,-9.277,20.996
1641303833.612,-80.078,-52.246,-7.812,-43.457
1641303833.616,50.781,-45.410,-8.301,-124.023
1641303833.627,-16.602,-58.105,-17.090,-139.648
1641303833.631,-182.129,-61.035,-13.184,-89.355
1641303833.635,-252.441,-56.641,-4.883,-70.801
1641303833.639,-156.738,-62.988,-4.395,-106.934
1641303833.643,-26.367,-68.359,-0.977,-170.410
1641303833.647,-35.156,-69.336,-2.930,-164.551
1641303833.651,-165.039,-71.289,-7.324,-87.402
1641303833.654,-236.328,-63.965,-8.301,-42.969
1641303833.658,-157.227,-62.988,-19.531,-46.387
1641303833.662,2.930,-60.547,-19.531,-105.469
1641303833.666,31.738,-57.129,-23.926,-124.512
1641303833.670,-96.191,-57.129,-26.367,-42.480
1641303833.664,-185.059,-58.105,-10.254,10.254
1641303833.668,-125.488,-54.199,-3.418,-24.414
1641303833.672,20.020,-50.781,-14.648,-83.496
1641303833.676,54.199,-54.688,-17.090,-97.168
1641303833.680,-63.965,-56.641,-17.090,-42.969
1641303833.684,-166.504,-55.176,-17.090,14.160
1641303833.688,-113.281,-53.223,-11.719,0.977
1641303833.691,31.738,-57.129,-18.555,-59.082
1641303833.695,88.379,-61.523,-25.879,-79.590
1641303833.699,-4.395,-45.410,-7.324,-26.367
1641303833.703,-130.371,-34.668,-7.324,28.809
1641303833.707,-113.281,-38.086,-22.949,23.438
1641303833.708,23.438,-39.062,-23.438,-44.434
1641303833.712,98.145,-40.527,-24.414,-89.844
1641303833.716,16.602,-41.992,-28.809,-31.738
1641303833.720,-120.117,-39.551,-21.973,33.203
1641303833.724,-126.953,-31.738,-14.648,29.297
1641303833.728,12.695,-31.250,-17.090,-15.625
1641303833.732,107.422,-41.016,-26.855,-59.570
1641303833.735,32.227,-49.316,-39.551,-16.602
1641303833.739,-99.609,-40.039,-26.367,43.945
1641303833.743,-122.559,-37.109,-19.043,51.270
1641303833.747,-7.812,-41.992,-22.461,0.488
1641303833.751,96.191,-47.852,-29.785,-64.941
1641303833.752,55.176,-44.434,-24.414,-45.898
1641303833.756,-82.520,-37.109,-7.324,15.137
1641303833.760,-131.836,-43.945,-14.160,29.297
1641303833.764,-20.996,-43.457,-26.855,-21.484
1641303833.768,108.398,-36.621,-27.832,-83.496
1641303833.772,78.613,-29.297,-24.902,-65.918
1641303833.776,-79.102,-41.992,-28.320,5.371
1641303833.779,-129.395,-56.152,-33.203,64.453
1641303833.783,-22.461,-37.109,-18.555,12.207
1641303833.787,66.406,-23.926,-23.926,-109.375
1641303833.791,45.898,-36.133,-37.598,-108.887
1641303833.795,-77.148,-32.227,-34.180,-31.738
1641303833.812,-168.457,-29.297,-33.203,-12.207
1641303833.816,-96.191,-38.574,-32.715,-51.270
1641303833.820,41.992,-42.480,-38.086,-104.004
1641303833.824,62.012,-41.992,-38.086,-109.375
1641303833.828,-50.293,-37.598,-32.227,-27.832
1641303833.832,-137.695,-39.062,-31.250,30.762
1641303833.836,-75.684,-43.457,-27.832,21.973
1641303833.839,64.941,-41.992,-28.320,-43.945
1641303833.843,87.891,-39.551,-38.086,-72.754
1641303833.847,-32.715,-42.480,-38.086,-9.277
1641303833.851,-137.695,-42.969,-27.832,47.852
1641303833.855,-98.145,-40.039,-25.879,19.043
1641303833.842,43.457,-42.969,-27.832,-52.734
1641303833.846,103.516,-36.621,-32.715,-78.125
1641303833.850,2.930,-41.016,-24.902,-19.531
1641303833.854,-130.859,-42.480,-11.719,31.250
1641303833.858,-113.770,-34.180,-23.926,3.418
1641303833.862,32.715,-41.992,-39.062,-52.734
1641303833.866,99.609,-48.340,-32.715,-80.566
1641303833.869,8.301,-34.180,-17.090,-41.992
1641303833.873,-118.652,-31.738,-16.602,12.695
1641303833.877,-117.676,-41.504,-25.879,17.578
1641303833.881,16.602,-38.574,-29.297,-37.109
1641303833.885,102.539,-27.832,-17.578,-93.750
1641303833.903,27.832,-26.855,-14.648,-50.781
1641303833.907,-113.281,-32.227,-27.832,17.578
1641303833.911,-126.953,-32.715,-27.832,2.441
1641303833.915,3.906,-30.273,-15.625,-43.457
1641303833.919,109.375,-27.832,-22.461,-81.055
1641303833.923,49.805,-28.320,-26.367,-56.641
1641303833.927,-94.727,-28.809,-16.113,9.277
1641303833.930,-121.582,-23.926,-13.672,23.438
1641303833.934,-8.301,-23.926,-16.602,-14.160
1641303833.938,98.633,-35.156,-25.879,-61.523
1641303833.942,62.988,-25.879,-19.531,-58.105
1641303833.946,-88.379,-23.438,-22.461,-1.953
1641303833.948,-154.297,-32.227,-24.902,20.508
1641303833.952,-54.199,-34.180,-22.949,-15.625
1641303833.956,79.590,-32.227,-23.438,-80.078
1641303833.960,66.895,-32.227,-22.461,-82.031
1641303833.964,-81.543,-44.434,-24.902,-4.395
1641303833.968,-153.809,-41.992,-22.461,33.203
1641303833.972,-63.965,-36.621,-22.461,-8.301
1641303833.975,70.801,-34.180,-25.879,-73.730
1641303833.979,84.473,-33.203,-23.438,-68.359
1641303833.983,-54.199,-41.016,-22.461,12.207
1641303833.987,-153.320,-30.273,-19.531,36.133
1641303833.991,-80.566,-26.367,-19.043,8.301
1641303833.994,59.570,-35.156,-27.344,-49.316
1641303833.998,91.797,-33.203,-25.879,-76.660
1641303834.002,-25.391,-31.738,-24.902,-18.555
1641303834.006,-140.137,-45.410,-31.738,20.020
1641303834.010,-93.262,-43.457,-25.391,3.418
1641303834.014,54.199,-36.133,-22.949,-51.758
1641303834.018,101.562,-42.969,-30.762,-75.195
1641303834.021,-11.230,-41.992,-23.438,-18.555
1641303834.025,-142.090,-43.457,-26.367,31.250
1641303834.029,-112.305,-44.922,-20.508,10.742
1641303834.033,43.945,-42.969,-15.137,-55.176
1641303834.037,115.723,-35.645,-17.578,-90.820
1641303834.037,10.742,-33.691,-7.812,-36.621
1641303834.041,-126.465,-37.109,-13.184,20.020
1641303834.045,-116.211,-34.180,-14.648,8.301
1641303834.049,20.020,-32.715,-17.578,-44.922
1641303834.053,102.539,-34.668,-22.461,-79.102
1641303834.057,26.367,-43.945,-14.648,-31.738
1641303834.061,-125.000,-42.480,-19.043,11.719
1641303834.064,-150.879,-32.715,-19.531,8.301
1641303834.068,-14.648,-38.086,-17.090,-24.902
1641303834.072,89.844,-37.109,-13.184,-80.078
1641303834.076,17.090,-35.645,-14.160,-60.059
1641303834.080,-129.395,-41.504,-26.367,8.789
1641303834.084,-148.438,-35.156,-25.391,23.926
1641303834.088,-23.438,-24.902,-25.391,-30.762
1641303834.092,92.773,-20.996,-23.438,-84.961
1641303834.096,55.664,-28.320,-28.809,-53.711
1641303834.100,-89.355,-31.250,-29.785,7.324
1641303834.104,-146.484,-35.156,-28.320,19.531
1641303834.108,-40.039,-39.062,-41.016,-16.113
1641303834.111,85.449,-44.922,-41.504,-68.848
1641303834.115,67.383,-37.109,-32.715,-61.035
1641303834.119,-68.848,-31.250,-27.832,9.766
1641303834.123,-145.508,-34.180,-29.297,29.297
1641303834.127,-61.523,-29.785,-28.320,-18.066
1641303834.127,74.707,-25.879,-25.391,-76.172
1641303834.131,70.312,-31.250,-28.809,-73.242
1641303834.135,-67.871,-41.016,-25.879,-3.906
1641303834.139,-138.184,-34.668,-15.625,36.621
1641303834.143,-67.871,-29.297,-21.484,9.277
1641303834.147,57.617,-42.480,-27.344,-64.941
1641303834.151,82.031,-53.711,-21.484,-72.266
1641303834.154,-42.969,-53.711,-17.578,6.348
1641303834.158,-149.902,-39.062,-15.625,34.668
1641303834.162,-88.867,-40.527,-13.184,9.277
1641303834.166,61.523,-45.898,-19.531,-46.875
1641303834.170,102.539,-42.969,-31.250,-83.496
1641303834.177,-7.324,-40.527,-36.133,-26.367
1641303834.181,-127.930,-32.715,-34.180,30.273
1641303834.185,-99.609,-37.598,-29.785,11.230
1641303834.189,51.270,-37.598,-25.879,-48.828
1641303834.193,116.211,-31.250,-27.344,-79.590
1641303834.197,12.695,-37.109,-27.344,-24.414
1641303834.201,-124.023,-50.293,-33.691,40.039
1641303834.204,-107.910,-41.992,-33.691,22.949
1641303834.208,34.668,-31.738,-28.809,-41.992
1641303834.212,103.027,-36.621,-29.785,-77.637
1641303834.216,12.695,-41.504,-41.016,-41.992
1641303834.220,-121.582,-41.016,-39.062,17.578
1641303834.217,-128.418,-32.715,-28.809,21.973
1641303834.221,10.254,-37.109,-30.762,-24.414
1641303834.225,108.887,-38.086,-24.414,-66.895
1641303834.229,43.945,-36.133,-20.020,-36.133
1641303834.233,-90.332,-36.133,-14.648,32.715
1641303834.237,-128.418,-38.574,-18.555,45.410
1641303834.241,-20.020,-46.387,-31.738,4.395
1641303834.244,94.727,-41.504,-33.691,-60.547
1641303834.248,53.223,-41.016,-35.156,-60.059
1641303834.252,-92.285,-41.992,-36.133,3.906
1641303834.256,-134.766,-33.691,-28.320,23.926
1641303834.260,-25.879,-29.297,-21.484,-19.531
1641303834.280,94.238,-27.832,-18.555,-79.102
1641303834.284,67.871,-29.297,-23.438,-64.941
1641303834.288,-69.824,-27.344,-19.043,10.254
1641303834.292,-139.648,-30.762,-18.066,33.203
1641303834.296,-43.945,-40.039,-27.344,-11.230
1641303834.300,81.543,-51.758,-34.668,-69.824
1641303834.304,74.219,-46.875,-38.086,-70.801
1641303834.307,-51.270,-35.645,-28.320,-2.930
1641303834.311,-133.789,-38.086,-26.855,27.344
1641303834.315,-57.617,-45.410,-30.273,3.418
1641303834.319,86.914,-41.016,-18.555,-60.059
1641303834.323,99.609,-36.133,-20.996,-77.148
1641303834.322,-30.273,-34.180,-27.832,-3.418
1641303834.326,-131.348,-38.574,-26.367,38.086
1641303834.330,-74.707,-37.598,-23.438,9.277
1641303834.334,74.707,-32.227,-20.020,-49.316
1641303834.338,107.422,-36.621,-24.902,-80.078
1641303834.342,-15.137,-41.504,-30.273,-21.973
1641303834.346,-131.836,-40.039,-23.926,38.574
1641303834.349,-89.844,-36.621,-18.555,22.949
1641303834.353,59.082,-40.039,-20.996,-38.574
1641303834.357,103.516,-44.922,-34.180,-55.664
1641303834.361,3.906,-30.762,-28.809,-8.789
1641303834.365,-110.352,-29.785,-15.625,40.039
1641303834.369,-95.703,-41.992,-21.484,34.668
1641303834.373,39.551,-40.527,-25.391,-31.738
1641303834.377,107.910,-39.062,-27.344,-81.543
1641303834.381,19.531,-38.086,-23.926,-41.504
1641303834.385,-108.887,-34.668,-21.484,26.855
1641303834.389,-119.141,-36.621,-21.484,25.391
1641303834.393,16.113,-37.109,-23.926,-33.691
1641303834.396,113.770,-31.738,-29.297,-74.219
1641303834.400,40.527,-35.156,-30.273,-20.020
1641303834.404,-102.051,-35.645,-23.926,27.344
1641303834.408,-121.094,-34.180,-17.578,19.043
1641303834.412,11.230,-34.668,-19.531,-20.020
1641303834.414,123.047,-30.762,-20.020,-71.777
1641303834.418,62.500,-32.227,-11.719,-51.270
1641303834.422,-93.262,-38.086,-15.625,14.160
1641303834.426,-134.277,-42.969,-20.508,27.832
1641303834.430,-19.043,-35.156,-14.160,-21.484
1641303834.434,88.867,-31.250,-18.555,-82.520
1641303834.438,53.223,-32.227,-17.578,-68.848
1641303834.441,-89.355,-25.391,-10.254,5.371
1641303834.445,-166.992,-26.855,-9.277,27.832
1641303834.449,-67.383,-17.090,0.977,-30.762
1641303834.453,53.223,-21.484,3.418,-122.070
1641303834.457,18.555,-28.320,-16.602,-125.488
1641303834.459,-130.859,-16.113,-17.578,-60.059
1641303834.463,-213.379,2.441,4.395,-43.945
1641303834.467,-162.598,4.883,-0.488,-110.840
1641303834.471,-46.875,6.836,-6.348,-191.895
1641303834.475,-42.480,12.695,2.441,-214.355
1641303834.479,-196.289,9.766,0.488,-165.039
1641303834.483,-311.035,20.020,-1.465,-134.766
1641303834.486,-265.625,33.203,-6.836,-168.457
1641303834.490,-140.137,54.688,7.812,-251.465
1641303834.494,-113.770,67.871,9.277,-284.668
1641303834.498,-233.398,70.312,11.719,-220.703
1641303834.502,-376.465,62.500,20.508,-199.219
1641303834.502,-350.586,51.270,15.625,-229.492
1641303834.506,-194.336,51.270,20.508,-291.992
1641303834.510,-147.461,57.129,18.555,-329.102
1641303834.514,-263.672,59.570,29.297,-276.367
1641303834.518,-387.207,52.246,41.504,-226.074
1641303834.522,-352.051,52.734,46.387,-225.098
1641303834.526,-201.660,52.246,50.293,-270.996
1641303834.529,-147.949,31.250,33.203,-307.129
1641303834.533,-221.680,35.156,26.367,-242.676
1641303834.537,-330.566,44.922,32.227,-179.199
1641303834.541,-331.543,42.480,34.668,-183.594
1641303834.545,-182.129,50.293,46.875,-224.609
1641303834.562,-83.496,48.340,50.293,-265.137
1641303834.566,-155.273,33.203,44.922,-218.750
1641303834.570,-288.574,25.391,38.086,-146.973
1641303834.574,-304.688,22.461,40.039,-141.113
1641303834.578,-175.293,12.207,40.039,-191.406
1641303834.582,-54.199,6.348,29.785,-222.168
1641303834.586,-105.957,0.488,27.344,-174.316
1641303834.589,-254.883,-3.906,35.645,-111.816
1641303834.593,-287.109,-8.301,30.762,-109.375
1641303834.597,-158.203,-10.254,26.367,-145.996
1641303834.601,-39.551,-11.230,28.809,-181.641
1641303834.605,-77.148,-10.742,23.926,-179.199
1641303834.593,-212.891,-11.719,12.695,-122.559
1641303834.597,-270.996,-12.695,7.324,-81.543
1641303834.601,-160.645,-21.973,9.277,-117.676
1641303834.605,-16.602,-23.926,7.324,-177.246
1641303834.609,-30.273,-24.902,5.371,-162.598
1641303834.613,-172.363,-38.574,-1.465,-83.008
1641303834.617,-229.980,-35.156,-3.418,-54.688
1641303834.620,-137.695,-21.484,-3.418,-96.191
1641303834.624,-6.348,-20.996,-8.301,-154.297
1641303834.628,10.742,-22.461,-15.625,-130.859
1641303834.632,-102.539,-27.832,-13.184,-50.781
1641303834.636,-183.105,-19.531,-1.953,-21.973
1641303834.653,-126.465,-17.578,-6.348,-62.500
1641303834.657,24.414,-33.691,-13.672,-106.934
1641303834.661,77.637,-22.461,-10.254,-101.074
1641303834.665,-65.430,-13.184,-3.906,-63.965
1641303834.669,-176.758,-27.832,-6.348,-16.602
1641303834.673,-103.516,-40.039,-11.230,-8.789
1641303834.677,31.250,-33.203,-15.625,-80.078
1641303834.680,70.801,-29.785,-10.254,-110.840
1641303834.684,-35.645,-44.922,-4.395,-29.297
1641303834.688,-154.785,-46.875,-11.719,38.086
1641303834.692,-125.000,-31.738,-18.555,-4.395
1641303834.696,14.648,-26.855,-13.184,-77.637
1641303834.699,71.777,-38.574,-16.113,-98.633
1641303834.703,-20.020,-45.410,-15.625,-44.922
1641303834.707,-142.578,-35.645,-16.602,2.441
1641303834.711,-132.324,-34.668,-21.973,-5.371
1641303834.715,21.973,-36.133,-25.391,-52.734
1641303834.719,104.492,-40.039,-34.180,-95.703
1641303834.723,3.418,-36.133,-28.809,-60.059
1641303834.726,-131.348,-32.715,-20.996,2.441
1641303834.730,-125.488,-33.691,-25.879,24.902
1641303834.734,-14.160,-38.574,-35.156,-19.531
1641303834.738,72.266,-37.598,-35.645,-94.238
1641303834.742,16.113,-41.016,-40.527,-64.941
1641303834.744,-119.141,-43.457,-42.480,15.137
1641303834.748,-145.508,-39.062,-32.227,16.113
1641303834.752,-23.438,-32.715,-33.691,-40.039
1641303834.756,93.262,-34.668,-38.574,-89.844
1641303834.760,46.875,-39.062,-42.480,-63.477
1641303834.764,-93.262,-32.715,-42.480,10.254
1641303834.768,-137.695,-30.273,-40.527,35.156
1641303834.771,-32.227,-39.551,-46.875,-2.441
1641303834.775,88.867,-50.293,-47.363,-62.012
1641303834.779,74.707,-41.992,-30.762,-60.547
1641303834.783,-66.895,-34.180,-25.879,0.977
1641303834.787,-145.508,-36.133,-33.691,27.832
1641303834.787,-54.688,-38.574,-33.203,-17.090
1641303834.791,80.078,-41.016,-39.062,-85.938
1641303834.795,82.031,-39.062,-40.039,-82.031
1641303834.799,-58.594,-40.527,-41.992,-13.672
1641303834.803,-144.531,-37.598,-40.527,22.461
1641303834.807,-70.801,-41.992,-34.180,-3.906
1641303834.811,68.359,-44.922,-34.668,-62.988
1641303834.814,91.309,-39.062,-34.668,-69.824
1641303834.818,-46.875,-37.598,-37.109,-10.742
1641303834.822,-153.320,-35.156,-36.621,15.625
1641303834.826,-82.031,-39.062,-30.762,5.371
1641303834.830,79.102,-48.340,-29.297,-37.109
1641303834.834,130.371,-40.039,-30.762,-60.547
1641303834.838,12.695,-26.855,-27.344,-13.184
1641303834.842,-115.234,-28.320,-21.973,35.156
1641303834.846,-89.844,-36.621,-12.207,16.602
1641303834.850,47.852,-37.109,-11.719,-54.688
1641303834.854,106.934,-33.691,-29.785,-93.750
1641303834.858,0.000,-39.551,-39.062,-39.551
1641303834.861,-133.789,-43.457,-34.668,31.250
1641303834.865,-128.906,-41.504,-27.832,7.812
1641303834.869,4.883,-44.922,-38.086,-70.801
1641303834.873,89.355,-48.340,-43.457,-101.074
1641303834.877,12.207,-42.969,-27.344,-41.992
1641303834.878,-111.816,-31.738,-20.508,17.578
1641303834.882,-126.465,-31.738,-26.855,0.977
1641303834.886,-3.418,-31.738,-32.227,-55.664
1641303834.890,96.191,-27.344,-27.344,-90.820
1641303834.894,32.227,-26.367,-20.020,-44.922
1641303834.898,-113.770,-32.227,-23.438,27.832
1641303834.902,-148.926,-49.316,-25.391,34.668
1641303834.905,-36.621,-58.105,-24.902,-20.020
1641303834.909,75.195,-41.016,-21.973,-95.703
1641303834.913,36.621,-32.227,-23.926,-75.195
1641303834.917,-104.004,-42.480,-28.809,-4.395
1641303834.921,-155.762,-39.551,-25.391,12.207
1641303834.925,-51.270,-34.668,-23.438,-25.391
1641303834.929,79.102,-35.645,-20.020,-72.754
1641303834.933,54.199,-40.039,-23.926,-52.734
1641303834.937,-90.332,-41.504,-16.602,11.719
1641303834.941,-152.832,-39.551,-15.625,25.879
1641303834.945,-53.223,-37.598,-31.738,-15.625
1641303834.949,83.496,-39.551,-29.785,-61.523
1641303834.952,97.168,-26.855,-13.672,-62.500
1641303834.956,-33.691,-22.949,-15.137,1.953
1641303834.960,-112.305,-39.062,-36.133,44.434
1641303834.964,-20.996,-40.527,-33.691,13.184
1641303834.968,115.234,-24.902,-19.531,-53.223
1641303834.967,130.371,-13.672,-15.137,-57.617
1641303834.971,-6.836,-17.090,-18.066,17.578
1641303834.975,-109.863,-23.438,-21.973,63.477
1641303834.979,-35.156,-24.414,-34.180,43.945
1641303834.983,120.605,-33.691,-40.039,-3.418
1641303834.987,161.621,-44.434,-39.062,-2.441
1641303834.991,45.410,-52.734,-35.645,83.008
1641303834.994,-49.805,-67.383,-20.996,127.441
1641303834.998,1.465,-56.641,-20.020,99.609
1641303835.002,151.367,-38.086,-44.922,56.152
1641303835.006,220.215,-44.922,-56.641,44.434
1641303835.010,119.141,-48.340,-40.039,99.609
1641303835.029,-3.418,-43.945,-35.156,153.320
1641303835.033,13.672,-48.340,-45.410,149.902
1641303835.037,166.016,-47.363,-52.246,101.562
1641303835.041,259.277,-51.758,-49.805,82.520
1641303835.045,167.969,-71.777,-55.664,152.344
1641303835.049,37.598,-77.148,-72.754,214.844
1641303835.053,41.992,-74.707,-80.078,208.984
1641303835.056,178.711,-71.777,-80.078,152.832
1641303835.060,272.949,-74.707,-74.707,112.305
1641303835.064,206.543,-96.680,-70.312,164.062
1641303835.068,73.730,-77.637,-58.594,222.168
1641303835.072,54.199,-56.152,-50.781,225.098
1641303835.072,190.430,-66.895,-55.176,184.082
1641303835.076,299.316,-67.383,-60.547,121.582
1641303835.080,248.535,-60.059,-62.500,149.414
1641303835.084,111.328,-59.082,-55.664,224.609
1641303835.088,65.918,-64.453,-48.828,227.539
1641303835.092,183.105,-69.824,-53.711,171.875
1641303835.096,295.410,-71.777,-46.875,125.000
1641303835.099,248.047,-77.637,-40.039,141.602
1641303835.103,99.121,-80.566,-49.805,199.219
1641303835.107,28.809,-86.426,-57.617,223.633
1641303835.111,133.789,-83.984,-50.781,167.480
1641303835.115,268.066,-81.055,-44.922,100.098
1641303835.119,248.047,-85.938,-53.223,104.980
1641303835.123,102.051,-79.590,-49.316,160.156
1641303835.127,17.578,-68.848,-38.574,181.641
1641303835.131,100.586,-69.336,-37.109,138.672
1641303835.135,236.328,-75.195,-37.598,75.684
1641303835.139,233.887,-76.172,-34.180,72.754
1641303835.143,94.238,-68.359,-25.879,133.301
1641303835.146,-3.418,-64.453,-29.785,166.504
1641303835.150,44.922,-75.195,-38.574,143.555
1641303835.154,178.223,-72.754,-34.180,64.941
1641303835.158,209.473,-62.988,-24.414,38.086
1641303835.162,87.402,-67.383,-20.996,100.586
1641303835.162,-20.996,-58.105,-19.043,144.043
1641303835.166,19.043,-45.898,-15.625,109.375
1641303835.170,153.320,-49.316,-21.973,28.809
1641303835.174,206.055,-48.828,-32.227,-1.953
1641303835.178,94.238,-44.922,-34.668,52.734
1641303835.182,-39.551,-51.270,-35.645,98.145
1641303835.186,-20.020,-51.270,-42.480,77.148
1641303835.189,116.211,-45.410,-37.598,27.344
1641303835.193,178.711,-50.781,-30.273,3.906
1641303835.197,84.473,-45.898,-30.273,38.086
1641303835.201,-45.898,-40.527,-28.320,88.867
1641303835.205,-51.270,-42.969,-32.227,87.402
1641303835.211,83.496,-45.898,-38.574,21.973
1641303835.215,163.574,-54.199,-40.039,-32.715
1641303835.219,78.613,-47.363,-39.062,4.395
1641303835.223,-56.152,-42.480,-35.645,77.148
1641303835.227,-73.242,-37.109,-29.297,72.754
1641303835.231,53.711,-33.691,-27.344,19.043
1641303835.235,154.785,-38.086,-28.320,-23.926
1641303835.238,95.215,-37.598,-30.762,16.602
1641303835.242,-50.293,-30.273,-25.391,70.312
1641303835.246,-94.727,-35.645,-26.367,52.734
1641303835.250,13.184,-41.504,-34.180,4.395
1641303835.254,127.441,-39.551,-40.039,-45.898
1641303835.253,96.680,-38.574,-29.785,-23.438
1641303835.257,-48.340,-30.762,-18.066,51.758
1641303835.261,-106.445,-27.344,-20.996,76.660
1641303835.265,0.488,-29.785,-20.996,33.691
1641303835.269,121.582,-31.250,-29.785,-34.180
1641303835.273,98.633,-34.180,-28.320,-32.715
1641303835.277,-47.852,-43.457,-22.461,38.574
1641303835.280,-127.441,-56.152,-31.250,75.195
1641303835.284,-29.297,-52.246,-27.832,29.785
1641303835.288,104.980,-37.598,-24.414,-50.781
1641303835.292,90.820,-42.480,-33.691,-56.152
1641303835.296,-39.551,-42.480,-37.109,13.184
1641303835.312,-123.047,-35.645,-25.391,46.387
1641303835.316,-62.012,-39.062,-25.879,13.184
1641303835.320,74.707,-43.945,-38.574,-45.898
1641303835.324,109.375,-38.574,-36.621,-63.965
1641303835.328,-16.602,-35.645,-32.227,-7.324
1641303835.332,-128.906,-41.016,-30.762,47.852
1641303835.336,-73.730,-42.969,-25.879,33.203
1641303835.339,69.336,-35.156,-26.367,-40.527
1641303835.343,116.699,-31.250,-24.902,-68.359
1641303835.347,1.465,-38.086,-23.438,8.301
1641303835.351,-124.023,-46.875,-27.344,59.082
1641303835.355,-92.285,-46.875,-27.832,17.578
1641303835.343,48.828,-48.340,-22.949,-44.922
1641303835.347,112.793,-48.828,-23.926,-62.988
1641303835.351,20.508,-53.223,-20.508,-15.625
1641303835.355,-101.562,-43.457,-10.254,38.574
1641303835.359,-80.566,-31.250,-9.277,48.828
1641303835.363,61.523,-33.203,-16.113,-3.906
1641303835.367,128.418,-35.156,-16.602,-53.711
1641303835.370,33.691,-29.297,-16.113,-20.020
1641303835.374,-99.121,-25.391,-15.625,44.922
1641303835.378,-109.375,-33.691,-24.902,56.641
1641303835.382,11.719,-41.016,-26.855,-0.488
1641303835.386,112.305,-35.645,-17.090,-59.570
1641303835.411,54.688,-40.039,-18.066,-20.020
1641303835.415,-98.145,-38.574,-14.648,38.574
1641303835.419,-132.812,-32.715,-13.672,22.949
1641303835.423,-1.953,-35.645,-19.531,-30.762
1641303835.427,98.145,-38.086,-24.414,-85.449
1641303835.431,34.180,-45.410,-28.320,-63.477
1641303835.435,-104.004,-47.852,-23.438,5.371
1641303835.438,-140.137,-47.363,-17.578,19.043
1641303835.442,-28.809,-46.875,-25.391,-24.902
1641303835.446,89.844,-53.223,-25.879,-65.430
1641303835.450,66.406,-46.875,-18.555,-53.711
1641303835.454,-74.219,-38.086,-20.508,14.648
1641303835.447,-137.695,-39.551,-26.855,43.945
1641303835.451,-44.434,-41.992,-22.949,0.977
1641303835.455,90.332,-34.668,-11.719,-54.199
1641303835.459,92.285,-36.621,-22.461,-55.176
1641303835.463,-51.270,-47.852,-33.203,7.324
1641303835.467,-145.996,-50.293,-26.367,36.133
1641303835.471,-66.895,-38.574,-21.973,-4.395
1641303835.474,70.312,-32.715,-25.391,-61.035
1641303835.478,84.961,-37.598,-35.156,-56.152
1641303835.482,-47.852,-40.039,-30.762,19.531
1641303835.486,-136.230,-27.832,-19.043,45.410
1641303835.490,-65.430,-30.273,-17.578,15.625
1641303835.494,64.941,-48.828,-19.043,-42.969
1641303835.498,97.168,-45.898,-17.578,-63.477
1641303835.502,-18.555,-36.621,-16.602,0.488
1641303835.506,-128.906,-35.156,-18.066,42.969
1641303835.510,-87.402,-35.156,-20.020,23.438
1641303835.514,52.246,-42.480,-23.438,-41.504
1641303835.518,102.051,-41.504,-28.809,-79.102
1641303835.521,0.977,-36.133,-26.367,-21.973
1641303835.525,-115.234,-45.898,-27.344,40.039
1641303835.529,-98.145,-47.363,-22.949,24.902
1641303835.533,34.668,-38.086,-23.926,-36.621
1641303835.537,106.445,-36.133,-34.668,-75.195
1641303835.537,19.531,-47.363,-29.297,-30.273
1641303835.541,-108.887,-41.016,-24.414,41.016
1641303835.545,-102.051,-30.273,-23.438,36.133
1641303835.549,28.809,-40.527,-23.926,-22.461
1641303835.553,110.352,-40.527,-36.621,-67.871
1641303835.557,40.527,-41.992,-40.039,-27.344
1641303835.561,-101.562,-45.410,-33.203,24.414
1641303835.564,-136.719,-37.109,-36.621,20.508
1641303835.568,-14.648,-46.875,-33.691,-1.953
1641303835.572,96.680,-44.434,-22.949,-50.781
1641303835.576,43.945,-38.086,-22.949,-41.016
1641303835.580,-104.980,-41.992,-21.973,20.020
1641303835.584,-140.137,-40.527,-17.090,30.273
1641303835.588,-25.879,-45.898,-14.160,-7.812
1641303835.592,83.008,-51.758,-19.531,-65.918
1641303835.596,55.176,-47.852,-23.926,-48.828
1641303835.600,-73.730,-41.016,-16.113,27.344
1641303835.604,-131.348,-41.504,-12.207,46.387
1641303835.608,-29.785,-36.621,-22.461,2.930
1641303835.611,98.633,-32.715,-37.109,-55.664
1641303835.615,100.586,-26.367,-26.367,-57.129
1641303835.619,-35.645,-26.367,-16.602,6.348
1641303835.623,-116.699,-31.250,-18.555,36.133
1641303835.627,-40.527,-37.598,-23.438,-1.953
1641303835.628,84.473,-40.039,-29.297,-75.684
1641303835.632,98.633,-32.227,-29.297,-78.613
1641303835.636,-31.250,-35.645,-24.414,-9.766
1641303835.640,-129.395,-33.203,-20.996,23.438
1641303835.644,-65.430,-29.785,-20.508,-1.465
1641303835.648,68.848,-40.039,-28.809,-63.477
1641303835.652,93.750,-44.922,-30.273,-77.637
1641303835.655,-38.086,-59.082,-21.484,-3.906
1641303835.659,-140.137,-47.852,-17.090,33.203
1641303835.663,-91.309,-33.203,-25.391,-1.953
1641303835.667,42.969,-38.086,-33.691,-56.152
1641303835.671,98.145,-37.598,-28.809,-74.707
1641303835.675,-5.371,-33.203,-26.367,-28.809
1641303835.679,-130.371,-29.785,-25.391,20.508
1641303835.683,-114.258,-34.180,-23.926,13.184
1641303835.687,28.809,-35.645,-18.555,-47.852
1641303835.691,102.539,-36.133,-18.555,-85.449
1641303835.695,3.418,-40.039,-14.648,-31.250
1641303835.699,-133.301,-46.875,-23.926,39.062
1641303835.702,-123.535,-43.457,-23.438,29.297
1641303835.706,7.812,-39.551,-11.719,-39.062
1641303835.710,92.285,-40.039,-21.484,-83.496
1641303835.714,21.973,-41.504,-29.297,-45.410
1641303835.718,-105.957,-40.039,-27.344,19.043
1641303835.733,-102.539,-32.227,-15.625,39.062
1641303835.737,26.367,-32.227,-20.508,-5.371
1641303835.741,116.699,-35.156,-31.738,-66.406
1641303835.745,61.035,-39.551,-28.320,-42.969
1641303835.749,-83.496,-43.457,-23.926,28.320
1641303835.753,-130.371,-40.527,-29.785,43.457
1641303835.757,-13.184,-41.504,-35.645,3.906
1641303835.760,111.816,-35.156,-30.273,-59.082
1641303835.764,83.496,-30.273,-20.020,-48.828
1641303835.768,-65.430,-34.668,-11.719,28.809
1641303835.772,-121.582,-32.227,-9.277,47.363
1641303835.776,-17.090,-19.531,-16.113,-0.977
1641303835.779,97.656,-19.531,-32.227,-67.871
1641303835.783,79.102,-33.203,-37.598,-62.988
1641303835.787,-48.340,-34.668,-30.273,18.066
1641303835.791,-120.117,-39.062,-27.344,43.945
1641303835.795,-38.574,-46.875,-37.109,-2.930
1641303835.799,95.703,-44.922,-41.016,-59.570
1641303835.803,101.074,-39.062,-24.902,-59.082
1641303835.806,-22.461,-39.551,-11.230,5.859
1641303835.810,-125.488,-43.945,-13.184,35.156
1641303835.814,-67.871,-40.527,-20.020,19.531
1641303835.818,82.520,-30.762,-19.043,-44.922
1641303835.822,102.051,-30.762,-31.738,-75.195
1641303835.822,-23.926,-31.250,-35.645,-4.883
1641303835.826,-130.371,-29.297,-32.715,34.668
1641303835.830,-75.195,-31.250,-24.902,9.766
1641303835.834,75.684,-29.297,-21.484,-40.039
1641303835.838,110.352,-33.691,-32.715,-65.430
1641303835.842,-3.418,-34.668,-30.762,-11.719
1641303835.846,-127.930,-37.598,-21.973,38.086
1641303835.849,-108.887,-46.387,-21.484,17.090
1641303835.853,29.785,-54.199,-28.320,-47.852
1641303835.857,89.355,-59.082,-33.203,-67.871
1641303835.861,1.465,-40.527,-25.391,-15.625
1641303835.865,-115.234,-32.227,-21.484,36.133
1641303835.869,-105.469,-35.156,-20.996,37.109
1641303835.873,41.992,-36.133,-20.996,-24.902
1641303835.877,128.418,-36.621,-15.625,-75.684
1641303835.881,35.156,-36.621,-11.719,-33.203
1641303835.885,-101.562,-37.109,-9.766,43.457
1641303835.889,-114.258,-35.156,-2.930,46.875
1641303835.893,-0.977,-38.574,-12.207,-25.879
1641303835.896,97.656,-38.574,-28.320,-78.613
1641303835.900,33.691,-42.969,-31.250,-29.297
1641303835.904,-115.234,-41.016,-23.438,31.250
1641303835.908,-139.160,-35.645,-22.461,30.273
1641303835.912,-21.484,-36.133,-26.367,-15.137
1641303835.912,91.309,-37.598,-19.531,-75.684
1641303835.916,62.500,-32.715,-18.555,-58.594
1641303835.920,-60.059,-26.855,-20.996,20.508
1641303835.924,-108.398,-21.484,-15.625,31.250
1641303835.928,-18.066,-24.902,-26.367,-21.973
1641303835.932,103.516,-34.668,-43.945,-78.613
1641303835.936,87.891,-32.227,-36.133,-62.500
1641303835.939,-56.152,-39.062,-31.250,16.113
1641303835.943,-129.883,-51.758,-40.527,49.805
1641303835.947,-26.855,-42.480,-31.738,7.812
1641303835.951,117.188,-33.203,-19.043,-62.500
1641303835.955,117.188,-37.109,-15.137,-64.453
1641303835.961,-16.113,-34.180,-22.949,9.277
1641303835.965,-117.188,-33.203,-27.832,41.016
1641303835.969,-56.152,-35.156,-21.484,-3.906
1641303835.973,87.402,-46.387,-30.273,-57.129
1641303835.977,109.863,-45.898,-30.273,-64.453
1641303835.981,-26.855,-39.551,-18.066,1.953
1641303835.985,-131.836,-39.062,-11.230,40.527
1641303835.988,-75.684,-45.410,-11.230,13.672
1641303835.992,67.383,-40.527,-18.066,-47.363
1641303835.996,106.445,-36.621,-25.391,-69.824
1641303836.000,-7.812,-38.086,-18.555,-0.488
1641303836.004,-119.629,-30.762,-15.137,54.688
1641303836.003,-83.008,-34.180,-17.090,35.156
1641303836.007,66.895,-35.156,-17.578,-29.297
1641303836.011,119.141,-35.156,-19.043,-52.734
1641303836.015,8.789,-40.039,-20.996,-5.371
1641303836.019,-116.699,-45.410,-23.438,37.109
1641303836.023,-108.398,-46.387,-29.785,19.531
1641303836.027,29.785,-40.039,-37.598,-34.668
1641303836.030,104.980,-48.340,-43.457,-59.570
1641303836.034,20.996,-38.574,-28.809,-27.344
1641303836.038,-111.816,-28.320,-17.578,18.066
1641303836.042,-125.977,-31.738,-22.949,26.367
1641303836.046,9.766,-26.367,-19.043,-33.691
1641303836.049,109.375,-31.250,-20.508,-87.402
1641303836.053,37.109,-41.992,-24.414,-42.969
1641303836.057,-105.957,-44.434,-26.367,21.484
1641303836.061,-127.930,-40.527,-23.926,16.602
1641303836.065,-6.836,-30.762,-18.555,-33.691
1641303836.069,100.098,-30.762,-31.738,-80.566
1641303836.073,44.922,-37.598,-28.320,-43.945
1641303836.076,-89.355,-27.344,-9.766,30.273
1641303836.080,-125.000,-24.414,-11.719,36.133
1641303836.084,-22.949,-36.133,-24.414,-18.555
1641303836.088,97.168,-34.668,-29.785,-77.148
1641303836.092,71.289,-36.621,-25.391,-59.082
1641303836.092,-71.289,-40.039,-20.996,20.996
1641303836.096,-135.254,-45.410,-22.461,39.062
1641303836.100,-42.969,-47.363,-27.344,-8.789
1641303836.104,88.867,-43.457,-27.832,-68.359
1641303836.108,77.637,-36.133,-24.902,-69.824
1641303836.112,-74.707,-41.016,-27.832,0.977
1641303836.116,-161.133,-50.293,-29.297,40.039
1641303836.119,-80.078,-38.574,-22.949,-0.977
1641303836.123,59.570,-28.320,-17.578,-69.336
1641303836.127,80.078,-33.203,-14.648,-56.641
1641303836.131,-52.246,-43.945,-16.602,14.648
1641303836.135,-150.879,-41.992,-20.996,31.738
1641303836.154,-83.008,-37.109,-21.484,7.812
1641303836.158,58.594,-35.156,-23.926,-44.922
1641303836.162,97.168,-33.691,-19.531,-60.547
1641303836.166,-17.090,-32.227,-5.371,4.883
1641303836.170,-129.883,-32.715,-10.742,56.152
1641303836.174,-94.238,-34.180,-22.461,36.621
1641303836.178,48.828,-30.762,-20.508,-30.762
1641303836.181,100.586,-36.621,-24.902,-61.523
1641303836.185,-9.277,-37.109,-26.855,-2.930
1641303836.189,-128.906,-27.832,-19.043,52.734
1641303836.193,-97.656,-16.602,-9.766,23.438
1641303836.197,45.410,-26.855,-15.137,-53.223
1641303836.198,105.957,-41.504,-27.344,-85.938
1641303836.202,17.578,-31.250,-13.184,-27.832
1641303836.206,-114.746,-32.715,-7.812,35.156
1641303836.210,-123.535,-40.039,-22.461,23.438
1641303836.214,7.324,-39.062,-25.391,-34.668
1641303836.218,90.820,-43.945,-25.391,-80.566
1641303836.222,8.301,-52.734,-24.414,-45.410
1641303836.225,-129.883,-48.828,-20.020,17.090
1641303836.229,-145.020,-40.527,-12.695,28.320
1641303836.233,-11.230,-46.387,-19.043,-15.625
1641303836.237,85.938,-39.551,-28.320,-77.148
1641303836.241,11.230,-42.480,-32.715,-56.152
1641303836.244,-126.953,-52.246,-28.809,7.812
1641303836.248,-152.832,-38.086,-12.695,25.391
1641303836.252,-42.480,-30.762,-15.625,-14.648
1641303836.256,79.590,-30.273,-22.461,-70.312
1641303836.260,46.387,-35.645,-18.555,-59.082
1641303836.264,-105.469,-41.504,-13.184,0.000
1641303836.268,-170.410,-41.016,-11.719,25.879
1641303836.271,-69.336,-43.945,-13.672,-9.766
1641303836.275,72.754,-62.012,-26.367,-56.152
1641303836.279,60.547,-55.664,-29.785,-54.688
1641303836.283,-86.914,-41.016,-22.949,1.465
1641303836.287,-153.809,-42.969,-14.648,36.133
1641303836.288,-64.453,-42.969,-7.324,0.488
1641303836.292,80.566,-34.180,-4.883,-53.711
1641303836.296,93.750,-39.062,-11.230,-61.523
1641303836.300,-48.828,-45.410,-19.043,-10.742
1641303836.304,-139.160,-45.410,-18.555,27.344
1641303836.308,-76.172,-45.410,-23.926,-4.395
1641303836.312,56.152,-42.969,-29.297,-74.219
1641303836.315,88.379,-46.875,-23.926,-81.055
1641303836.319,-36.621,-51.758,-23.438,-7.812
1641303836.323,-147.461,-35.156,-21.484,19.043
1641303836.327,-99.609,-21.484,-15.137,-20.996
1641303836.331,42.969,-24.414,-21.973,-82.031
1641303836.336,87.402,-31.250,-32.715,-112.305
1641303836.340,-30.762,-29.785,-25.391,-54.199
1641303836.344,-146.484,-26.367,-12.207,0.977
1641303836.348,-125.000,-28.320,-12.207,-16.602
1641303836.352,6.836,-17.090,-15.137,-77.148
1641303836.356,76.172,-19.043,-22.949,-113.281
1641303836.360,-24.902,-32.715,-31.250,-70.312
1641303836.363,-159.180,-35.645,-27.344,-4.883
1641303836.367,-149.414,-22.949,-19.043,-11.719
1641303836.371,-9.277,-9.277,-9.766,-79.102
1641303836.375,77.637,-7.324,-7.324,-119.629
1641303836.379,-5.371,-14.160,-6.348,-82.520
1641303836.380,-157.227,-28.320,-12.695,-40.039
1641303836.384,-182.617,-21.973,-10.254,-49.316
1641303836.388,-62.500,-13.184,-4.883,-105.957
1641303836.392,42.969,-3.418,0.488,-158.691
1641303836.396,-24.414,-5.371,3.418,-139.160
1641303836.400,-183.105,-16.602,-16.602,-77.637
1641303836.404,-235.840,-4.395,-15.625,-71.289
1641303836.407,-143.066,-14.160,-1.465,-133.301
1641303836.411,-31.738,-7.812,-3.418,-212.891
1641303836.415,-66.406,13.672,-1.953,-206.055
1641303836.419,-232.422,29.785,3.418,-151.367
1641303836.423,-312.012,37.598,17.578,-158.691
1641303836.425,-225.586,23.438,17.578,-222.168
1641303836.429,-95.215,14.648,1.465,-269.531
1641303836.433,-118.164,8.789,2.441,-250.977
1641303836.437,-277.832,10.254,15.137,-202.637
1641303836.441,-349.609,18.066,17.578,-185.059
1641303836.445,-264.160,7.812,12.695,-202.637
1641303836.449,-130.371,-5.371,10.254,-240.234
1641303836.452,-114.258,1.465,15.625,-251.465
1641303836.456,-250.488,6.836,11.230,-195.801
1641303836.460,-335.938,2.441,4.395,-142.578
1641303836.464,-249.512,-3.906,4.883,-155.762
1641303836.468,-100.098,-2.441,4.395,-209.961
1641303836.468,-75.195,2.441,7.324,-229.004
1641303836.472,-195.801,-10.742,5.859,-162.598
1641303836.476,-289.062,-23.926,9.277,-101.562
1641303836.480,-220.215,-19.531,8.789,-114.746
1641303836.484,-57.129,-4.883,0.000,-166.504
1641303836.488,-18.555,-12.207,-6.836,-172.852
1641303836.492,-125.488,-24.414,-13.184,-104.004
1641303836.495,-233.398,-19.043,-6.836,-59.082
1641303836.499,-197.266,-13.672,0.000,-67.871
1641303836.503,-43.945,-16.113,-9.277,-120.605
1641303836.507,25.391,-21.484,-17.090,-164.551
1641303836.511,-60.547,-25.391,-11.719,-109.863
1641303836.531,-187.012,-25.879,-14.160,-42.969
1641303836.535,-173.340,-23.926,-20.020,-42.480
1641303836.539,-37.109,-26.855,-19.043,-108.887
1641303836.543,51.270,-24.902,-16.602,-155.762
1641303836.547,-17.090,-18.555,-13.184,-102.051
1641303836.551,-169.434,-38.086,-18.555,-32.715
1641303836.555,-176.758,-43.457,-23.926,-23.926
1641303836.558,-30.273,-21.973,-13.672,-79.102
1641303836.562,58.105,-25.391,-15.625,-125.000
1641303836.566,-12.695,-49.805,-18.066,-81.055
1641303836.570,-150.391,-45.898,-4.883,-7.812
1641303836.574,-183.594,-36.133,-9.766,1.953
1641303836.572,-64.941,-46.387,-17.090,-45.898
1641303836.576,60.547,-48.340,-12.695,-99.121
1641303836.580,18.066,-45.898,-9.277,-90.332
1641303836.584,-145.020,-45.898,-19.531,-33.691
1641303836.588,-194.336,-42.480,-25.879,-10.742
1641303836.592,-76.660,-36.133,-23.438,-43.945
1641303836.596,45.410,-37.109,-24.902,-102.051
1641303836.599,28.320,-36.133,-24.902,-95.215
1641303836.603,-107.910,-32.715,-25.391,-27.344
1641303836.607,-178.711,-37.598,-20.508,4.883
1641303836.611,-77.637,-38.086,-10.742,-37.109
1641303836.615,63.477,-41.504,-24.902,-106.934
1641303836.619,66.895,-41.504,-38.574,-104.980
1641303836.623,-69.824,-36.133,-30.762,-34.180
1641303836.627,-166.504,-34.180,-30.762,0.488
1641303836.631,-82.031,-25.879,-31.250,-29.297
1641303836.635,77.148,-24.902,-32.227,-85.938
1641303836.639,77.148,-34.668,-37.109,-101.074
1641303836.643,-55.176,-36.133,-31.738,-38.574
1641303836.646,-145.996,-30.762,-30.762,13.672
1641303836.650,-92.773,-32.227,-30.762,7.812
1641303836.654,37.109,-30.762,-22.461,-68.359
1641303836.658,78.125,-31.738,-26.855,-105.957
1641303836.662,-25.391,-39.551,-34.668,-25.879
1641303836.663,-141.113,-40.039,-30.762,41.504
1641303836.667,-101.074,-31.738,-25.391,16.602
1641303836.671,37.598,-25.391,-32.227,-60.547
1641303836.675,93.750,-25.879,-33.691,-88.867
1641303836.679,0.488,-29.297,-25.391,-29.297
1641303836.683,-123.535,-38.574,-24.902,25.879
1641303836.687,-112.793,-42.969,-22.949,5.371
1641303836.690,29.785,-37.109,-23.438,-60.547
1641303836.694,110.840,-38.086,-34.180,-81.543
1641303836.698,36.621,-30.762,-35.645,-43.457
1641303836.702,-103.516,-33.203,-30.762,0.488
1641303836.706,-112.305,-47.852,-23.926,17.578
1641303836.711,22.461,-48.340,-22.461,-26.367
1641303836.715,113.770,-37.109,-31.250,-87.891
1641303836.719,55.664,-26.855,-38.574,-49.316
1641303836.723,-83.496,-35.645,-38.086,12.207
1641303836.727,-119.629,-37.598,-30.762,7.324
1641303836.731,2.441,-41.992,-30.273,-33.691
1641303836.735,101.562,-42.969,-38.086,-90.332
1641303836.738,48.340,-37.109,-39.062,-51.758
1641303836.742,-91.797,-36.621,-26.367,17.090
1641303836.746,-145.020,-42.480,-19.531,13.672
1641303836.750,-30.273,-39.551,-26.367,-22.949
1641303836.754,96.191,-37.598,-35.156,-72.266
1641303836.752,63.477,-43.457,-35.645,-57.129
1641303836.756,-81.055,-42.969,-27.344,7.812
1641303836.760,-150.879,-34.668,-27.832,20.508
1641303836.764,-62.988,-35.156,-38.086,-22.949
1641303836.768,70.801,-39.062,-41.992,-89.355
1641303836.772,71.777,-38.574,-41.504,-81.055
1641303836.776,-58.594,-36.133,-35.645,-6.348
1641303836.779,-147.461,-50.781,-34.668,30.273
1641303836.783,-64.453,-44.922,-38.574,-12.207
1641303836.787,81.543,-28.809,-45.410,-82.520
1641303836.791,90.332,-28.809,-48.828,-76.660
1641303836.795,-38.574,-30.273,-34.180,-12.695
1641303836.800,-133.301,-42.480,-24.414,14.160
1641303836.804,-80.566,-41.504,-34.668,-18.066
1641303836.808,51.758,-28.320,-46.875,-76.172
1641303836.812,90.332,-26.855,-41.504,-95.703
1641303836.816,-21.973,-40.527,-29.785,-31.738
1641303836.820,-131.836,-53.223,-27.832,32.227
1641303836.824,-90.820,-46.387,-29.297,31.250
1641303836.827,48.828,-43.457,-28.809,-48.828
1641303836.831,92.773,-37.109,-27.832,-94.727
1641303836.835,-16.602,-27.832,-29.297,-22.949
1641303836.839,-132.812,-32.715,-25.391,37.109
1641303836.843,-117.676,-31.250,-18.555,2.441
1641303836.843,16.602,-20.020,-25.391,-63.477
1641303836.847,93.750,-19.531,-36.621,-95.703
1641303836.851,2.441,-25.879,-40.527,-47.363
1641303836.855,-125.977,-32.227,-24.902,28.320
1641303836.859,-129.395,-31.738,-12.207,16.113
1641303836.863,-18.066,-32.227,-26.855,-59.570
1641303836.867,62.012,-40.039,-37.109,-107.910
1641303836.870,-9.277,-36.621,-33.691,-82.520
1641303836.874,-150.391,-37.598,-31.738,-19.043
1641303836.878,-177.246,-45.410,-17.578,-7.324
1641303836.882,-56.641,-46.387,-20.996,-74.707
1641303836.886,67.871,-38.574,-37.598,-135.254
1641303836.904,30.273,-34.180,-34.180,-84.961
1641303836.908,-121.094,-42.480,-16.602,-8.789
1641303836.912,-161.133,-52.246,3.418,-1.953
1641303836.916,-39.551,-47.852,-3.418,-43.457
1641303836.920,72.266,-28.809,-20.996,-100.586
1641303836.924,21.973,-37.109,-24.902,-80.566
1641303836.928,-105.957,-45.410,-17.578,3.418
1641303836.931,-142.090,-36.133,-1.953,31.738
1641303836.935,-37.598,-49.316,-14.160,-2.441
1641303836.939,88.379,-59.570,-27.832,-50.781
1641303836.943,70.801,-53.223,-21.484,-27.832
1641303836.947,-41.992,-67.383,-19.043,50.293
1641303836.950,-96.680,-65.430,-14.160,86.426
1641303836.954,-2.441,-52.734,-20.020,68.359
1641303836.958,152.832,-53.223,-27.832,19.043
1641303836.962,179.199,-48.828,-20.996,23.926
1641303836.966,57.129,-42.969,-24.414,105.957
1641303836.970,-22.461,-57.617,-34.180,165.039
1641303836.974,66.406,-61.035,-70.312,139.160
1641303836.977,199.219,-41.992,-71.289,60.547
1641303836.981,233.887,-38.574,-34.180,71.289
1641303836.985,143.555,-56.152,-32.227,173.340
1641303836.989,33.203,-51.270,-23.438,202.637
1641303836.993,76.660,-50.781,-20.508,179.199
1641303836.996,234.863,-52.734,-32.715,133.789
1641303837.000,294.434,-38.086,-42.969,107.910
1641303837.004,188.965,-47.363,-55.176,163.574
1641303837.008,72.266,-66.895,-46.875,214.355
1641303837.012,90.332,-65.918,-48.340,198.242
1641303837.016,235.352,-58.105,-62.500,135.254
1641303837.020,312.988,-61.523,-40.527,113.770
1641303837.023,216.309,-71.289,-27.832,168.945
1641303837.027,66.406,-69.824,-47.852,218.750
1641303837.031,61.035,-59.082,-48.828,201.660
1641303837.035,200.195,-58.594,-35.645,144.043
1641303837.039,279.785,-60.547,-39.062,102.539
1641303837.038,192.383,-59.570,-46.875,137.207
1641303837.042,51.758,-59.570,-34.668,195.801
1641303837.046,34.668,-58.105,-32.715,194.824
1641303837.050,156.250,-61.035,-33.203,136.230
1641303837.054,241.211,-69.336,-37.598,83.496
1641303837.058,174.316,-76.660,-48.828,106.445
1641303837.062,43.945,-67.871,-42.969,160.645
1641303837.065,1.465,-67.871,-35.645,167.969
1641303837.069,104.492,-81.055,-40.527,128.418
1641303837.073,217.773,-66.895,-38.086,58.105
1641303837.077,182.617,-52.246,-25.391,58.594
1641303837.081,44.922,-51.758,-29.297,141.113
1641303837.084,-24.414,-53.223,-30.762,155.762
1641303837.088,75.195,-50.293,-21.973,96.191
1641303837.092,205.566,-55.176,-24.414,42.480
1641303837.096,186.523,-58.105,-25.879,52.246
1641303837.100,40.039,-51.270,-19.531,109.863
1641303837.104,-41.016,-49.805,-21.484,139.160
1641303837.108,44.922,-54.688,-20.020,108.398
1641303837.111,160.645,-73.242,-21.484,47.852
1641303837.115,155.273,-70.801,-21.484,30.762
1641303837.119,30.273,-47.852,-19.531,83.496
1641303837.123,-65.430,-46.875,-18.066,118.652
1641303837.127,0.488,-47.363,-13.672,87.891
1641303837.127,138.672,-44.434,-12.207,16.113
1641303837.131,167.969,-39.551,-12.695,-6.836
1641303837.135,47.363,-30.273,-5.371,68.848
1641303837.139,-72.754,-34.180,-5.371,98.145
1641303837.143,-29.785,-41.016,-10.254,51.270
1641303837.147,108.887,-44.434,-14.160,-8.301
1641303837.151,143.066,-49.805,-20.996,-23.926
1641303837.154,28.320,-55.664,-18.066,51.270
1641303837.158,-85.449,-44.922,-8.789,89.355
1641303837.162,-54.688,-40.039,-11.719,65.430
1641303837.166,81.055,-52.246,-11.719,11.230
1641303837.170,142.578,-58.594,-10.742,-31.250
1641303837.187,49.316,-44.434,-11.719,12.207
1641303837.191,-83.984,-36.133,-11.230,70.801
1641303837.195,-84.961,-46.387,-21.973,64.453
1641303837.199,55.176,-40.527,-20.508,-3.906
1641303837.203,135.742,-40.039,-19.531,-52.734
1641303837.207,53.711,-47.852,-33.691,4.883
1641303837.211,-86.426,-51.270,-30.273,71.777
1641303837.214,-104.980,-43.945,-20.996,55.176
1641303837.218,34.180,-34.180,-18.066,-1.465
1641303837.222,135.742,-40.039,-16.602,-42.480
1641303837.226,66.895,-53.223,-22.949,-12.695
1641303837.230,-73.242,-44.434,-21.973,45.898
1641303837.218,-104.004,-33.691,-16.113,54.688
1641303837.222,13.184,-36.621,-19.043,7.324
1641303837.226,119.141,-37.598,-31.250,-52.734
1641303837.230,76.172,-35.156,-24.902,-25.391
1641303837.234,-71.289,-40.527,-26.367,41.504
1641303837.238,-122.559,-51.270,-33.691,54.688
1641303837.242,-17.090,-55.664,-35.156,11.719
1641303837.245,111.816,-43.457,-34.180,-60.547
1641303837.249,98.633,-38.574,-26.367,-50.293
1641303837.253,-40.039,-47.852,-33.203,39.551
1641303837.257,-96.680,-42.969,-41.504,82.520
1641303837.261,-32.227,-30.762,-33.691,9.766
1641303837.278,71.777,-34.668,-25.391,-76.172
1641303837.282,86.426,-41.992,-23.438,-54.199
1641303837.286,-50.781,-35.645,-23.438,0.000
1641303837.290,-151.855,-37.109,-22.461,24.902
1641303837.294,-78.125,-41.016,-25.879,4.883
1641303837.298,61.523,-44.922,-33.203,-60.059
1641303837.302,82.031,-55.176,-30.762,-69.824
1641303837.305,-45.410,-51.270,-21.973,-17.090
1641303837.309,-145.508,-43.945,-22.461,27.344
1641303837.313,-78.613,-44.922,-20.996,18.066
1641303837.317,68.848,-36.621,-14.160,-46.387
1641303837.321,114.746,-34.668,-13.184,-68.359
1641303837.322,-4.395,-37.598,-24.414,-2.930
1641303837.326,-124.512,-27.832,-18.555,58.594
1641303837.330,-89.844,-28.809,-9.766,28.809
1641303837.334,47.363,-36.133,-21.973,-45.410
1641303837.338,95.703,-34.668,-29.785,-68.359
1641303837.342,-5.371,-36.621,-31.738,-20.020
1641303837.346,-120.117,-35.645,-30.273,36.133
1641303837.349,-103.516,-33.691,-28.809,29.297
1641303837.353,34.668,-36.133,-22.949,-29.297
1641303837.357,107.910,-43.945,-20.020,-53.223
1641303837.361,24.414,-38.086,-15.625,-15.625
1641303837.365,-103.516,-31.738,-11.719,29.785
1641303837.370,-112.305,-37.598,-17.578,32.227
1641303837.374,19.531,-41.016,-22.461,-27.832
1641303837.378,112.305,-38.086,-25.391,-77.637
1641303837.382,40.527,-39.062,-26.367,-34.668
1641303837.386,-109.863,-34.180,-22.949,29.297
1641303837.390,-134.766,-24.902,-15.137,37.598
1641303837.394,-3.418,-21.973,-14.648,-13.184
1641303837.397,98.633,-29.785,-25.391,-74.219
1641303837.401,43.945,-41.016,-27.832,-34.180
1641303837.405,-90.820,-29.297,-11.230,41.504
1641303837.409,-130.371,-26.367,-1.465,45.410
1641303837.413,-21.973,-44.434,-9.766,-1.465
1641303837.413,104.004,-47.852,-23.438,-53.711
1641303837.417,77.148,-37.598,-20.020,-40.527
1641303837.421,-68.359,-38.086,-15.137,23.926
1641303837.425,-129.395,-41.504,-19.043,39.551
1641303837.429,-32.715,-36.133,-22.461,-3.906
1641303837.433,93.262,-26.855,-30.273,-59.570
1641303837.437,94.727,-28.320,-33.691,-50.781
1641303837.440,-30.273,-32.715,-26.367,24.414
1641303837.444,-111.328,-41.504,-26.855,66.406
1641303837.448,-35.156,-37.109,-23.926,15.625
1641303837.452,101.562,-32.715,-24.414,-51.758
1641303837.456,108.398,-34.668,-28.320,-50.293
1641303837.460,-31.250,-36.621,-20.020,8.301
1641303837.464,-131.348,-40.039,-17.578,35.156
1641303837.468,-62.500,-37.598,-22.461,4.395
1641303837.472,76.172,-41.992,-25.879,-51.270
1641303837.476,110.840,-36.133,-16.602,-64.453
1641303837.480,-7.324,-29.785,-13.672,7.812
1641303837.484,-126.953,-38.086,-22.949,52.246
1641303837.487,-83.496,-43.457,-21.484,21.484
1641303837.491,62.988,-35.156,-20.996,-41.504
1641303837.495,104.980,-35.156,-25.391,-66.406
1641303837.499,-9.766,-42.969,-27.344,-27.344
1641303837.503,-129.883,-31.250,-24.414,22.949
1641303837.502,-104.492,-30.762,-21.484,16.113
1641303837.506,45.410,-39.062,-24.414,-56.641
1641303837.510,108.887,-38.574,-34.180,-87.402
1641303837.514,10.254,-37.109,-41.016,-37.109
1641303837.518,-118.164,-37.109,-38.574,16.602
1641303837.522,-106.445,-44.434,-32.715,19.043
1641303837.526,19.043,-48.340,-30.273,-26.367
1641303837.529,91.797,-52.734,-39.062,-58.594
1641303837.533,28.320,-34.668,-26.367,-35.156
1641303837.537,-104.492,-27.344,-14.648,16.113
1641303837.541,-128.418,-36.621,-27.832,30.273
1641303837.545,-6.348,-34.180,-34.180,-17.090
1641303837.549,102.051,-39.062,-36.133,-77.637
1641303837.553,53.223,-44.434,-30.273,-48.828
1641303837.557,-95.703,-43.945,-31.738,17.090
1641303837.561,-134.766,-39.551,-32.227,15.625
1641303837.565,-25.391,-46.875,-36.133,-34.180
1641303837.569,98.633,-43.457,-40.527,-88.867
1641303837.573,65.430,-41.992,-35.645,-54.688
1641303837.576,-78.125,-34.180,-19.043,25.391
1641303837.580,-125.488,-28.320,-13.672,34.180
1641303837.584,-33.691,-40.527,-27.344,-13.184
1641303837.588,84.473,-37.109,-32.227,-69.824
1641303837.592,81.055,-26.367,-24.414,-68.359
1641303837.592,-53.223,-28.809,-30.762,0.977
1641303837.596,-134.277,-34.668,-27.344,38.574
1641303837.600,-55.664,-36.621,-21.973,8.301
1641303837.604,91.797,-30.762,-21.973,-47.852
1641303837.608,96.680,-29.297,-20.508,-58.105
1641303837.612,-40.039,-32.227,-29.785,11.230
1641303837.616,-125.977,-30.273,-31.738,56.641
1641303837.619,-65.918,-31.250,-26.367,9.277
1641303837.623,71.777,-36.133,-30.273,-66.895
1641303837.627,106.934,-40.039,-32.715,-73.730
1641303837.631,-14.160,-42.480,-28.320,-3.418
1641303837.635,-115.234,-33.691,-15.137,39.062
1641303837.657,-56.641,-27.832,-15.137,15.137
1641303837.661,75.195,-34.668,-20.996,-47.363
1641303837.665,110.840,-37.109,-20.996,-68.359
1641303837.669,2.441,-30.762,-19.043,-10.254
1641303837.673,-123.535,-35.645,-17.090,42.480
1641303837.677,-104.492,-41.992,-22.461,29.785
1641303837.681,41.016,-37.109,-25.879,-30.273
1641303837.684,112.793,-29.785,-22.461,-69.336
1641303837.688,5.859,-39.062,-26.855,-28.320
1641303837.692,-129.883,-41.504,-37.109,52.246
1641303837.696,-109.863,-34.668,-31.738,37.109
1641303837.700,29.785,-42.480,-28.320,-40.527
1641303837.699,107.910,-51.758,-34.668,-77.148
1641303837.703,30.273,-50.293,-45.898,-27.832
1641303837.707,-101.562,-42.969,-41.504,30.762
1641303837.711,-112.793,-46.387,-34.668,28.809
1641303837.715,15.625,-48.340,-38.086,-18.555
1641303837.719,117.188,-35.156,-34.180,-60.059
1641303837.723,55.176,-30.762,-25.391,-30.762
1641303837.726,-88.379,-42.480,-27.344,25.879
1641303837.730,-121.582,-49.316,-36.621,33.691
1641303837.734,-13.184,-51.758,-37.109,-4.883
1641303837.738,108.887,-39.551,-29.785,-76.172
1641303837.742,78.125,-35.645,-28.809,-69.824
1641303837.745,-76.660,-41.992,-29.297,7.324
1641303837.749,-134.766,-37.109,-24.414,25.879
1641303837.753,-26.367,-31.250,-19.043,-16.113
1641303837.757,88.867,-35.645,-26.367,-83.496
1641303837.761,63.477,-49.316,-35.645,-70.801
1641303837.765,-81.055,-48.340,-25.879,6.348
1641303837.769,-145.508,-39.551,-17.578,21.973
1641303837.772,-53.711,-36.621,-16.602,-6.836
1641303837.776,67.383,-44.434,-21.484,-50.781
1641303837.780,63.965,-40.039,-27.832,-70.312
1641303837.784,-62.988,-25.879,-18.066,-5.859
1641303837.788,-146.973,-35.645,-11.719,32.227
1641303837.787,-78.613,-45.898,-29.785,-1.465
1641303837.791,73.242,-36.133,-39.551,-64.453
1641303837.795,93.750,-36.133,-29.297,-83.008
1641303837.799,-41.504,-41.016,-30.273,-23.438
1641303837.803,-143.066,-41.016,-32.227,17.578
1641303837.807,-82.520,-35.645,-19.043,2.930
1641303837.811,55.664,-36.621,-25.391,-61.035
1641303837.814,95.703,-30.762,-41.016,-85.449
1641303837.818,-13.184,-38.086,-40.039,-6.836
1641303837.822,-128.906,-35.156,-30.273,32.227
1641303837.826,-96.191,-27.344,-24.414,-6.836
1641303837.830,43.457,-33.691,-22.949,-44.922
1641303837.834,103.027,-32.715,-28.320,-74.707
1641303837.838,8.789,-31.250,-31.738,-35.156
1641303837.842,-119.141,-33.691,-25.391,22.949
1641303837.846,-111.328,-38.574,-24.414,17.578
1641303837.850,22.461,-38.574,-26.367,-37.109
1641303837.854,102.539,-40.527,-34.180,-74.219
1641303837.858,29.297,-48.340,-36.133,-22.949
1641303837.861,-104.492,-46.387,-31.738,47.363
1641303837.865,-113.281,-35.156,-27.832,37.109
1641303837.869,19.531,-27.832,-20.996,-26.855
1641303837.873,111.328,-27.344,-11.719,-67.871
1641303837.877,42.480,-37.109,-11.719,-28.320
1641303837.877,-101.562,-34.180,-17.090,38.086
1641303837.881,-127.441,-28.809,-7.324,39.062
1641303837.885,-7.324,-41.504,-9.766,-20.020
1641303837.889,98.633,-41.504,-28.320,-77.148
1641303837.893,56.152,-35.156,-26.855,-42.969
1641303837.897,-88.867,-38.086,-12.695,21.484
1641303837.901,-137.695,-34.180,-17.578,31.250
1641303837.904,-37.109,-38.574,-22.461,3.906
1641303837.908,85.938,-30.762,-18.066,-60.547
1641303837.912,73.730,-24.902,-22.461,-57.617
1641303837.916,-63.965,-35.156,-28.320,16.113
1641303837.920,-128.418,-36.621,-22.461,40.527
1641303837.938,-31.250,-30.273,-16.602,-6.348
1641303837.942,100.586,-29.297,-20.020,-64.453
1641303837.946,88.867,-33.691,-23.926,-52.734
1641303837.950,-54.199,-37.598,-23.926,7.324
1641303837.954,-138.184,-38.574,-24.414,35.645
1641303837.958,-64.453,-34.180,-26.855,4.395
1641303837.962,65.918,-42.480,-33.203,-51.758
1641303837.965,84.961,-39.551,-22.461,-67.383
1641303837.969,-38.574,-33.203,-20.996,-19.531
1641303837.973,-141.602,-40.039,-30.762,27.832
1641303837.977,-89.844,-37.109,-29.785,6.348
1641303837.981,60.547,-25.879,-29.297,-60.059
1641303837.969,102.539,-24.414,-29.297,-72.266
1641303837.973,-18.066,-31.250,-29.297,-10.254
1641303837.977,-129.395,-33.691,-21.973,26.855
1641303837.981,-90.820,-30.762,-13.184,11.719
1641303837.985,49.316,-34.180,-17.090,-31.738
1641303837.989,101.074,-41.504,-34.180,-65.918
1641303837.993,-12.207,-42.969,-38.086,-21.484
1641303837.996,-134.277,-32.227,-20.996,26.855
1641303838.000,-107.910,-24.902,-11.719,12.695
1641303838.004,24.414,-32.715,-19.531,-42.480
1641303838.008,76.172,-35.645,-28.320,-85.449
1641303838.012,-0.977,-24.902,-27.344,-46.875
1641303838.029,-120.117,-28.809,-25.879,15.625
1641303838.033,-129.883,-44.434,-30.762,13.184
1641303838.037,1.465,-44.434,-29.785,-41.504
1641303838.041,94.727,-39.062,-20.508,-81.543
1641303838.045,24.414,-30.273,-15.137,-40.527
1641303838.049,-115.723,-29.297,-31.250,24.902
1641303838.053,-134.766,-30.762,-32.227,35.645
1641303838.056,-3.906,-26.367,-24.902,-27.832
1641303838.060,103.516,-24.902,-24.902,-72.266
1641303838.064,41.992,-28.320,-26.367,-36.133
1641303838.068,-92.773,-34.180,-26.367,21.484
1641303838.072,-123.047,-38.086,-20.508,34.668
1641303838.072,-9.766,-36.133,-16.602,-9.277
1641303838.076,104.004,-34.668,-14.160,-72.266
1641303838.080,74.707,-37.598,-9.277,-56.152
1641303838.084,-68.359,-39.062,-12.695,9.277
1641303838.088,-134.766,-37.598,-17.090,33.203
1641303838.092,-42.480,-41.992,-19.043,-4.883
1641303838.096,81.055,-46.387,-18.066,-74.707
1641303838.099,64.941,-40.527,-20.020,-77.637
1641303838.103,-84.473,-36.133,-26.367,-9.766
1641303838.107,-175.293,-40.527,-17.578,30.762
1641303838.111,-88.867,-38.574,1.953,-15.137
1641303838.115,44.434,-31.738,-6.348,-102.539
1641303838.119,51.758,-21.484,-12.207,-106.934
1641303838.123,-75.684,-16.602,5.859,-40.527
1641303838.127,-190.430,-20.020,6.836,-26.855
1641303838.131,-137.207,-15.137,1.953,-64.941
1641303838.135,3.906,-11.719,-0.977,-124.023
1641303838.139,28.809,-11.719,-13.184,-141.602
1641303838.143,-86.914,5.371,-11.719,-72.266
1641303838.146,-220.703,8.301,0.977,-49.805
1641303838.150,-212.402,-10.742,-3.418,-88.867
1641303838.154,-64.453,-2.930,-2.930,-151.367
1641303838.158,-15.625,6.348,-0.977,-205.078
1641303838.162,-132.812,13.672,0.000,-164.062
1641303838.163,-264.648,28.809,5.371,-111.328
1641303838.167,-261.719,28.809,6.836,-142.578
1641303838.171,-131.348,34.180,6.348,-215.820
1641303838.175,-83.008,37.598,4.883,-272.949
1641303838.179,-195.801,29.785,5.859,-246.094
1641303838.183,-319.336,21.484,9.766,-182.617
1641303838.187,-311.523,23.926,14.160,-181.152
1641303838.190,-189.941,28.320,17.090,-247.070
1641303838.194,-127.441,14.160,18.066,-290.039
1641303838.198,-201.172,4.883,20.996,-252.441
1641303838.202,-313.477,2.930,15.625,-177.246
1641303838.206,-312.012,0.488,10.254,-154.297
1641303838.214,-181.641,6.348,7.324,-210.938
1641303838.218,-83.008,1.953,14.160,-270.996
1641303838.222,-126.465,-7.324,21.973,-226.562
1641303838.226,-245.605,-9.766,17.578,-134.277
1641303838.230,-291.016,-5.859,12.207,-129.395
1641303838.234,-178.711,-13.184,9.766,-171.387
1641303838.238,-49.805,-20.020,3.906,-206.543
1641303838.241,-77.637,-21.973,-1.465,-175.781
1641303838.245,-214.844,-26.367,8.301,-113.281
1641303838.249,-258.301,-23.926,10.742,-88.379
1641303838.253,-139.648,-24.414,5.371,-111.328
1641303838.257,-7.324,-26.367,3.418,-169.922
1641303838.256,-24.902,-28.320,-0.977,-164.551
1641303838.260,-149.414,-28.320,-3.418,-77.148
1641303838.264,-220.215,-19.531,-7.324,-41.504
1641303838.268,-135.742,-19.043,-6.348,-93.262
1641303838.272,3.906,-22.949,-6.836,-160.645
1641303838.276,15.625,-24.902,-14.648,-150.879
1641303838.280,-100.098,-19.043,-15.625,-63.965
1641303838.283,-190.918,-27.832,-12.207,-15.137
1641303838.287,-126.953,-25.879,-1.953,-65.430
1641303838.291,27.344,-21.973,-4.883,-131.348
1641303838.295,61.523,-24.414,-10.254,-124.023
1641303838.299,-67.383,-18.066,-6.836,-64.941
1641303838.299,-184.570,-23.438,-3.418,-32.227
1641303838.303,-137.207,-33.203,0.977,-42.969
1641303838.307,1.465,-31.250,-5.859,-90.820
1641303838.311,59.570,-23.438,-12.695,-118.652
1641303838.315,-33.203,-26.855,-11.719,-66.406
1641303838.319,-160.156,-37.109,-13.672,-12.695
1641303838.323,-146.484,-42.969,-15.137,-17.090
1641303838.326,-3.906,-33.203,-7.324,-69.824
1641303838.330,66.895,-31.738,-1.953,-112.793
1641303838.334,-43.945,-36.133,-11.719,-74.219
1641303838.338,-170.410,-37.109,-17.578,-23.926
1641303838.342,-149.902,-40.527,-19.531,-24.902
1641303838.342,-8.789,-44.434,-17.578,-74.219
1641303838.346,72.266,-36.133,-12.207,-112.305
1641303838.350,-17.578,-30.762,-15.625,-81.055
1641303838.354,-150.879,-38.086,-19.531,-26.855
1641303838.358,-147.461,-40.039,-15.625,-12.207
1641303838.362,-21.973,-41.016,-20.020,-55.664
1641303838.366,69.336,-41.992,-27.832,-94.238
1641303838.369,15.137,-40.039,-20.508,-65.918
1641303838.373,-128.418,-34.668,-17.578,-16.602
1641303838.377,-157.227,-30.273,-22.461,0.488
1641303838.381,-43.457,-27.344,-27.344,-51.758
1641303838.385,59.570,-31.738,-26.855,-124.512
1641303838.403,30.273,-39.062,-31.250,-82.520
1641303838.407,-104.492,-39.062,-28.809,4.883
1641303838.411,-171.875,-30.762,-21.973,-1.465
1641303838.415,-79.102,-29.297,-23.926,-64.453
1641303838.419,42.480,-38.086,-32.715,-107.422
1641303838.423,22.949,-38.086,-40.039,-73.242
1641303838.427,-97.656,-25.391,-40.527,-15.625
1641303838.430,-159.668,-16.113,-36.133,-13.672
1641303838.434,-69.336,-21.484,-33.203,-47.363
1641303838.438,61.035,-28.809,-41.016,-94.238
1641303838.442,62.500,-21.484,-37.109,-94.727
1641303838.446,-78.125,-25.391,-33.691,-49.316
1641303838.449,-176.758,-31.738,-40.527,-32.715
1641303838.453,-93.750,-24.902,-44.434,-61.035
1641303838.457,57.129,-11.719,-41.504,-114.746
1641303838.461,80.566,-15.137,-39.062,-116.211
1641303838.465,-50.293,-23.926,-37.109,-46.387
1641303838.469,-161.133,-31.738,-37.598,-5.859
1641303838.473,-108.887,-33.691,-43.457,-30.762
1641303838.476,48.828,-26.855,-41.504,-83.984
1641303838.480,88.867,-22.461,-40.527,-96.191
1641303838.484,-54.688,-34.668,-41.016,-41.504
1641303838.488,-166.504,-25.879,-33.203,-4.883
1641303838.492,-109.375,-21.973,-31.250,-1.465
1641303838.499,37.598,-33.203,-27.832,-38.086
1641303838.503,87.891,-28.320,-27.832,-68.848
1641303838.507,-20.020,-15.625,-29.297,-35.645
1641303838.511,-136.719,-13.672,-19.531,31.250
1641303838.515,-120.117,-32.227,-22.949,43.457
1641303838.519,12.695,-38.574,-29.785,-32.715
1641303838.523,73.730,-25.879,-26.855,-95.703
1641303838.526,-5.371,-15.625,-25.879,-49.316
1641303838.530,-120.605,-21.484,-23.438,34.668
1641303838.534,-128.418,-22.949,-17.578,34.668
1641303838.538,-27.832,-17.578,-24.414,-50.293
1641303838.542,56.641,-28.809,-33.691,-95.703
1641303838.538,0.977,-34.668,-39.551,-38.574
1641303838.542,-117.676,-19.043,-35.645,27.832
1641303838.546,-142.578,-19.043,-29.297,25.391
1641303838.550,-23.438,-14.160,-25.391,-35.156
1641303838.554,87.402,-12.695,-27.832,-84.961
1641303838.558,41.016,-22.949,-38.086,-54.688
1641303838.562,-78.613,-24.902,-35.156,19.531
1641303838.565,-135.742,-13.672,-31.738,14.160
1641303838.569,-42.480,-15.625,-47.852,-41.504
1641303838.573,98.145,-13.184,-48.828,-98.633
1641303838.577,73.242,-0.977,-42.480,-88.379
1641303838.581,-75.684,1.465,-44.922,-10.254
1641303838.584,-146.484,2.930,-41.504,5.859
1641303838.588,-68.848,6.836,-46.875,-46.387
1641303838.592,51.758,3.418,-57.129,-108.887
1641303838.596,51.270,-11.719,-60.059,-100.098
1641303838.600,-84.961,-15.137,-44.922,-26.855
1641303838.604,-183.105,-17.578,-39.551,-2.930
1641303838.608,-122.070,-31.250,-52.734,-65.918
1641303838.611,9.766,-37.109,-59.570,-127.930
1641303838.615,38.574,-28.809,-53.223,-119.629
1641303838.619,-77.148,-30.762,-49.316,-62.988
1641303838.623,-190.918,-36.133,-47.852,-30.273
1641303838.627,-128.418,-23.438,-41.992,-46.875
1641303838.628,16.113,-19.043,-42.969,-99.121
1641303838.632,52.246,-23.438,-47.363,-119.141
1641303838.636,-69.824,-24.902,-53.223,-76.660
1641303838.640,-180.664,-24.414,-50.293,-27.344
1641303838.644,-132.812,-21.973,-48.340,-37.109
1641303838.648,2.930,-17.090,-49.805,-94.727
1641303838.652,75.195,-11.719,-53.223,-115.723
1641303838.655,-21.973,-26.367,-58.105,-48.828
1641303838.659,-163.574,-25.879,-53.223,-14.160
1641303838.663,-143.066,-18.066,-49.805,-38.574
1641303838.667,2.441,-22.461,-53.223,-86.914
1641303838.671,70.801,-24.902,-54.199,-131.836
1641303838.674,-11.230,-15.625,-51.270,-91.797
1641303838.678,-141.113,-18.555,-51.758,-30.762
1641303838.682,-153.809,-32.227,-52.734,-25.391
1641303838.686,-12.207,-25.879,-54.688,-74.707
1641303838.690,90.820,-19.531,-49.805,-127.441
1641303838.694,21.973,-36.621,-40.527,-77.148
1641303838.698,-123.047,-42.969,-47.363,6.836
1641303838.701,-142.578,-19.043,-41.992,16.602
1641303838.705,-4.883,-15.137,-37.109,-27.832
1641303838.709,94.238,-24.902,-38.086,-69.824
1641303838.713,33.203,-22.949,-30.273,-42.969
1641303838.717,-109.863,-26.367,-28.320,17.578
1641303838.718,-147.461,-31.738,-30.273,26.855
1641303838.722,-28.809,-34.668,-33.203,-7.812
1641303838.726,92.773,-37.109,-29.297,-46.387
1641303838.730,65.918,-29.297,-18.066,-33.203
1641303838.734,-75.684,-22.461,-10.742,25.391
1641303838.738,-152.344,-34.180,-12.207,36.133
1641303838.742,-60.547,-40.039,-24.414,-5.859
1641303838.745,78.613,-35.645,-29.785,-69.336
1641303838.749,74.219,-42.480,-25.391,-65.918
1641303838.753,-56.152,-43.945,-28.320,15.625
1641303838.757,-136.230,-35.645,-29.297,30.762
1641303838.761,-57.617,-29.297,-20.020,-3.418
1641303838.779,77.637,-39.062,-18.066,-50.781
1641303838.783,86.426,-49.805,-41.992,-72.266
1641303838.787,-40.039,-44.434,-43.945,-10.254
1641303838.791,-130.371,-41.504,-24.902,41.016
1641303838.795,-55.664,-34.668,-26.855,17.578
1641303838.799,70.801,-40.527,-32.227,-46.387
1641303838.803,85.938,-46.875,-23.438,-75.684
1641303838.806,-24.414,-35.156,-24.902,-24.902
1641303838.810,-124.512,-32.715,-37.109,27.832
1641303838.814,-84.961,-42.969,-40.039,9.277
1641303838.818,44.434,-49.316,-34.668,-60.547
1641303838.822,99.121,-38.574,-36.133,-79.102
1641303838.822,4.395,-38.574,-32.715,-14.648
1641303838.826,-108.398,-43.945,-29.297,37.598
1641303838.830,-70.312,-41.016,-27.832,30.762
1641303838.834,83.496,-47.363,-31.250,-19.531
1641303838.838,146.973,-42.480,-34.668,-42.480
1641303838.842,60.547,-55.664,-22.461,20.996
1641303838.846,-38.086,-75.684,-33.691,99.121
1641303838.849,-24.902,-56.152,-45.898,106.445
1641303838.853,89.844,-53.711,-20.508,39.551
1641303838.857,193.359,-63.477,-24.902,28.809
1641303838.861,144.043,-52.734,-24.414,88.867
1641303838.865,-9.277,-60.059,-3.418,126.953
1641303838.883,-20.020,-91.797,-0.488,147.949
1641303838.887,138.184,-107.910,-6.348,119.141
1641303838.891,264.648,-104.004,-37.109,81.055
1641303838.895,238.281,-96.680,-40.039,142.578
1641303838.899,96.680,-95.215,6.348,211.426
1641303838.903,53.711,-78.125,23.438,224.121
1641303838.907,164.062,-70.801,-16.602,179.199
1641303838.910,268.066,-81.543,-46.387,103.516
1641303838.914,257.812,-148.438,-9.277,157.227
1641303838.918,142.578,-143.066,33.691,255.371
1641303838.922,48.340,-36.621,-18.066,233.887
1641303838.926,126.465,-46.875,-46.387,176.270
1641303838.912,272.949,-105.957,-27.344,132.812
1641303838.916,255.371,-83.008,-25.879,131.836
1641303838.920,110.840,-58.594,-15.625,204.102
1641303838.924,31.738,-60.547,-14.648,232.910
1641303838.928,128.906,-60.059,-35.645,195.801
1641303838.932,266.602,-66.895,-36.133,143.066
1641303838.936,267.090,-74.219,-35.645,128.418
1641303838.939,134.277,-77.148,-39.062,191.895
1641303838.943,47.852,-63.477,-29.297,233.398
1641303838.947,112.305,-49.316,-27.832,205.078
1641303838.951,242.676,-43.945,-31.738,139.648
1641303838.955,264.648,-42.969,-32.227,126.465
1641303838.959,139.648,-46.875,-32.227,194.824
1641303838.963,40.039,-29.785,-21.484,225.098
1641303838.967,93.750,-20.996,-17.090,198.730
1641303838.971,226.562,-27.344,-20.508,133.789
1641303838.975,270.020,-27.344,-12.207,101.562
1641303838.979,161.621,-34.668,-10.742,167.480
1641303838.983,43.457,-28.809,-7.812,214.844
1641303838.986,62.012,-19.043,-4.395,201.172
1641303838.990,194.336,-10.254,0.977,133.301
1641303838.994,263.184,5.859,10.742,88.867
1641303838.998,173.828,4.395,18.066,137.695
1641303839.002,40.039,-9.277,10.254,180.176
1641303839.004,49.316,-10.254,-0.488,159.180
1641303839.008,171.875,-8.301,4.395,110.840
1641303839.012,239.746,-20.020,1.465,68.359
1641303839.016,158.691,-22.949,0.000,91.797
1641303839.020,23.438,-17.578,15.137,145.508
1641303839.024,11.230,-21.973,9.277,140.137
1641303839.028,126.953,-15.137,3.418,83.496
1641303839.031,215.332,-17.578,9.277,35.645
1641303839.035,154.297,-22.949,2.930,45.898
1641303839.039,11.719,-23.926,-0.977,103.516
1641303839.043,-32.227,-35.156,4.883,119.141
1641303839.047,80.566,-47.363,6.348,68.359
1641303839.051,205.566,-46.875,18.555,14.648
1641303839.055,159.668,-28.809,33.691,35.645
1641303839.059,-1.953,-23.438,27.344,94.238
1641303839.063,-56.641,-35.156,21.484,107.910
1641303839.067,53.711,-34.668,19.531,68.359
1641303839.071,159.668,-27.344,6.348,-1.953
1641303839.075,136.719,-30.273,-9.766,14.160
1641303839.078,10.254,-34.180,-13.672,92.773
1641303839.082,-62.988,-31.250,-16.602,104.980
1641303839.086,20.020,-33.691,-0.488,56.641
1641303839.090,139.648,-32.227,23.926,-13.184
1641303839.094,142.090,-32.715,20.996,-13.672
1641303839.093,18.066,-31.738,16.602,58.594
1641303839.097,-70.312,-34.668,23.926,95.215
1641303839.101,3.906,-38.574,14.648,62.012
1641303839.105,130.859,-43.457,-7.324,-8.789
1641303839.109,138.672,-45.898,-3.418,-21.973
1641303839.113,2.441,-52.246,3.906,49.316
1641303839.117,-114.746,-69.824,-0.488,94.238
1641303839.120,-58.105,-68.848,-0.977,56.641
1641303839.124,89.355,-65.918,-5.859,-24.902
1641303839.128,136.719,-78.125,-1.465,-34.180
1641303839.132,31.738,-77.637,12.695,59.570
1641303839.136,-81.055,-52.246,17.578,102.539
1641303839.153,-64.941,-42.480,21.973,48.828
1641303839.157,67.383,-60.059,20.508,-29.785
1641303839.161,121.094,-56.152,7.324,-64.941
1641303839.165,13.672,-47.852,-3.418,-17.578
1641303839.169,-117.676,-57.617,-7.812,35.645
1641303839.173,-104.980,-68.359,-13.184,39.062
1641303839.177,39.551,-73.730,-10.254,-12.695
1641303839.180,115.234,-62.500,-5.859,-52.734
1641303839.184,41.016,-51.270,-11.719,-3.906
1641303839.188,-92.285,-66.406,-17.090,62.500
1641303839.192,-96.191,-64.941,-9.277,61.035
1641303839.196,42.969,-52.734,-2.930,-6.348
1641303839.197,127.441,-56.152,-7.324,-57.617
1641303839.201,51.758,-63.477,-6.836,-15.625
1641303839.205,-85.938,-58.594,0.000,51.758
1641303839.209,-108.887,-48.828,7.324,56.641
1641303839.213,12.207,-51.758,0.000,4.883
1641303839.217,117.676,-48.828,-9.766,-48.828
1641303839.221,55.664,-46.387,-11.719,-28.809
1641303839.224,-89.355,-53.711,-13.184,29.785
1641303839.228,-135.742,-53.223,-7.324,33.691
1641303839.232,-33.203,-69.336,-5.859,-1.465
1641303839.236,90.332,-71.777,-5.859,-55.664
1641303839.240,64.941,-51.270,-5.859,-36.133
1641303839.244,-75.195,-44.922,-11.719,34.668
1641303839.248,-138.184,-41.504,-17.090,44.434
1641303839.252,-41.016,-38.086,-12.695,1.953
1641303839.256,93.750,-41.016,-7.812,-58.594
1641303839.260,85.938,-44.922,-10.254,-51.758
1641303839.264,-52.734,-37.109,-18.066,16.113
1641303839.268,-125.977,-41.992,-15.625,46.875
1641303839.271,-44.434,-52.734,-19.043,13.184
1641303839.275,77.637,-63.477,-29.297,-43.457
1641303839.279,87.402,-59.082,-22.949,-50.293
1641303839.283,-26.855,-43.457,-15.625,13.672
1641303839.287,-121.582,-50.781,-15.137,51.758
1641303839.290,-70.312,-56.152,-20.020,17.090
1641303839.294,68.848,-50.781,-25.391,-46.875
1641303839.298,116.699,-41.992,-26.855,-60.059
1641303839.302,-4.883,-56.641,-20.508,6.348
1641303839.306,-125.488,-60.059,-12.207,44.922
1641303839.310,-79.102,-46.875,-17.578,25.391
1641303839.314,62.012,-42.969,-24.902,-40.039
1641303839.317,108.887,-44.434,-23.438,-64.941
1641303839.321,12.207,-44.434,-12.695,4.395
1641303839.325,-104.980,-32.227,-3.418,38.574
1641303839.329,-96.191,-30.273,-14.648,15.625
1641303839.333,38.086,-38.574,-27.344,-29.785
1641303839.334,116.211,-36.133,-29.297,-71.289
1641303839.338,34.668,-28.809,-27.832,-24.414
1641303839.342,-96.191,-35.645,-26.855,37.598
1641303839.346,-106.445,-50.293,-27.344,27.344
1641303839.350,10.254,-60.547,-25.391,-32.715
1641303839.354,102.539,-55.664,-29.785,-88.867
1641303839.358,45.898,-40.527,-28.320,-52.734
1641303839.361,-70.801,-32.715,-30.762,43.457
1641303839.365,-88.867,-25.391,-29.297,44.434
1641303839.369,-5.371,-29.297,-33.691,-45.898
1641303839.373,84.961,-39.062,-40.527,-99.121
1641303839.377,44.434,-37.109,-31.738,-59.570
1641303839.377,-100.586,-40.039,-25.391,3.906
1641303839.381,-144.043,-41.992,-21.973,16.113
1641303839.385,-25.879,-47.852,-14.160,-18.555
1641303839.389,104.004,-53.223,-12.695,-63.477
1641303839.393,74.219,-43.457,-14.160,-45.898
1641303839.397,-71.289,-36.133,-19.043,20.020
1641303839.401,-135.254,-48.340,-29.785,45.898
1641303839.404,-48.828,-56.641,-35.645,27.832
1641303839.408,84.961,-41.016,-29.785,-34.180
1641303839.412,84.473,-29.785,-25.879,-53.711
1641303839.416,-65.430,-44.434,-30.273,13.672
1641303839.420,-147.949,-58.594,-26.855,49.805
1641303839.424,-73.730,-50.293,-25.879,4.395
1641303839.428,43.945,-40.039,-32.715,-58.594
1641303839.432,54.688,-40.039,-30.762,-61.523
1641303839.436,-70.801,-45.410,-22.461,-1.953
1641303839.440,-159.180,-40.039,-19.531,33.691
1641303839.444,-89.844,-36.621,-25.391,2.930
1641303839.448,58.594,-41.016,-27.832,-54.688
1641303839.451,97.656,-41.504,-28.320,-69.824
1641303839.455,-16.602,-46.387,-25.391,-14.648
1641303839.459,-117.188,-50.293,-21.973,35.156
1641303839.463,-85.449,-52.734,-27.344,14.648
1641303839.467,49.316,-49.805,-37.109,-51.758
1641303839.468,103.027,-45.410,-35.645,-77.148
1641303839.472,-1.953,-48.828,-31.738,-11.230
1641303839.476,-128.418,-53.711,-32.715,35.645
1641303839.480,-104.980,-55.176,-27.832,8.789
1641303839.484,41.016,-47.363,-29.785,-43.457
1641303839.488,112.793,-39.551,-33.203,-73.730
1641303839.492,20.020,-50.781,-31.250,-15.137
1641303839.495,-104.492,-48.340,-21.484,43.945
1641303839.499,-107.910,-36.133,-16.602,31.738
1641303839.503,15.137,-39.062,-21.484,-27.344
1641303839.507,108.398,-38.574,-31.250,-69.336
1641303839.511,41.504,-28.320,-29.297,-24.902
1641303839.530,-95.703,-40.039,-21.973,39.551
1641303839.534,-113.770,-59.570,-33.691,30.273
1641303839.538,0.488,-59.570,-45.410,-21.973
1641303839.542,102.051,-47.363,-36.133,-79.102
1641303839.546,56.152,-42.969,-33.691,-59.082
1641303839.550,-89.844,-59.570,-44.922,24.414
1641303839.554,-131.836,-61.035,-35.645,35.156
1641303839.557,-14.648,-50.293,-28.809,-23.926
1641303839.561,104.004,-43.945,-42.969,-69.824
1641303839.565,77.637,-33.691,-43.945,-39.062
1641303839.569,-60.059,-31.738,-30.762,26.855
1641303839.573,-120.117,-35.156,-27.832,38.086
1641303839.572,-24.414,-38.574,-31.738,0.488
1641303839.576,87.891,-40.527,-35.645,-66.406
1641303839.580,61.523,-41.992,-34.668,-63.477
1641303839.584,-62.500,-44.434,-31.738,13.672
1641303839.588,-137.695,-49.805,-36.133,41.504
1641303839.592,-65.918,-52.246,-38.086,-10.254
1641303839.596,71.777,-57.617,-37.109,-81.055
1641303839.599,82.520,-53.711,-36.621,-73.730
1641303839.603,-60.059,-48.340,-35.645,-5.371
1641303839.607,-160.645,-52.246,-37.598,41.992
1641303839.611,-83.984,-49.805,-34.180,2.930
1641303839.615,59.082,-44.434,-28.320,-72.266
1641303839.620,82.031,-47.852,-38.086,-76.172
1641303839.624,-43.945,-46.875,-51.270,-13.672
1641303839.628,-134.277,-41.992,-45.410,28.320
1641303839.632,-78.613,-47.363,-44.434,-2.441
1641303839.636,51.758,-58.594,-46.875,-60.059
1641303839.640,99.121,-57.617,-39.062,-78.125
1641303839.644,-4.395,-46.387,-34.668,-14.160
1641303839.647,-118.652,-44.434,-22.949,59.570
1641303839.651,-100.586,-43.457,-24.414,51.270
1641303839.655,40.527,-31.738,-23.438,-23.438
1641303839.659,115.723,-33.203,-19.531,-67.871
1641303839.663,19.531,-53.711,-21.973,-15.625
1641303839.662,-119.629,-41.016,-23.926,39.551
1641303839.666,-118.652,-24.414,-26.855,28.320
1641303839.670,20.996,-26.855,-37.598,-24.414
1641303839.674,106.445,-30.273,-43.945,-73.730
1641303839.678,15.625,-35.156,-34.668,-35.645
1641303839.682,-108.887,-37.598,-29.297,23.438
1641303839.686,-121.094,-35.645,-29.297,16.113
1641303839.689,0.977,-40.527,-38.086,-32.227
1641303839.693,107.422,-46.387,-47.363,-63.965
1641303839.697,51.270,-34.180,-42.480,-40.039
1641303839.701,-83.008,-27.832,-41.504,15.625
1641303839.705,-120.117,-37.598,-40.039,28.809
1641303839.710,-9.766,-43.945,-29.297,-10.742
1641303839.714,96.191,-38.574,-28.809,-65.430
1641303839.718,55.176,-28.320,-32.715,-47.363
1641303839.722,-80.078,-36.621,-29.785,20.996
1641303839.726,-136.719,-48.340,-27.832,28.809
1641303839.730,-45.410,-47.363,-33.203,-21.973
1641303839.734,79.590,-42.969,-40.039,-77.637
1641303839.737,56.641,-53.223,-39.062,-60.547
1641303839.741,-75.684,-39.551,-28.809,9.277
1641303839.745,-143.555,-23.926,-29.785,19.043
1641303839.749,-62.988,-31.738,-38.086,-22.949
1641303839.753,64.453,-37.109,-40.527,-72.754
1641303839.753,61.035,-34.180,-36.133,-80.078
1641303839.757,-63.477,-36.133,-31.738,-12.207
1641303839.761,-144.531,-40.039,-33.203,25.391
1641303839.765,-75.684,-42.969,-25.391,5.859
1641303839.769,63.477,-43.457,-23.438,-59.082
1641303839.773,85.938,-46.875,-37.598,-71.777
1641303839.777,-35.156,-52.246,-41.016,-3.418
1641303839.780,-137.695,-61.523,-42.480,40.527
1641303839.784,-71.289,-47.852,-36.621,8.789
1641303839.788,89.844,-27.344,-36.133,-60.059
1641303839.792,129.395,-27.344,-41.016,-75.195
1641303839.796,7.324,-32.715,-39.062,-14.160
1641303839.799,-110.352,-36.133,-30.762,34.180
1641303839.803,-78.125,-36.133,-29.785,16.113
1641303839.807,63.477,-37.598,-40.527,-43.945
1641303839.811,125.000,-36.621,-40.039,-78.125
1641303839.815,18.555,-35.156,-26.367,-25.879
1641303839.819,-104.492,-38.574,-26.855,32.227
1641303839.823,-100.098,-53.711,-37.598,27.832
1641303839.826,33.691,-47.363,-38.086,-31.250
1641303839.830,115.234,-34.668,-40.039,-89.355
1641303839.834,37.598,-48.340,-39.551,-42.480
1641303839.838,-97.168,-51.270,-30.273,27.344
1641303839.842,-110.352,-35.645,-31.250,22.461
1641303839.843,25.391,-28.809,-36.133,-20.020
1641303839.847,117.676,-34.180,-35.156,-61.523
1641303839.851,49.316,-33.691,-27.832,-28.320
1641303839.855,-86.426,-30.762,-23.438,29.785
1641303839.859,-115.723,-33.691,-27.832,35.645
1641303839.863,-5.859,-43.945,-31.250,-7.324
1641303839.867,96.680,-51.758,-35.156,-55.664
1641303839.870,57.617,-43.457,-36.133,-46.387
1641303839.874,-82.520,-41.016,-29.785,9.766
1641303839.878,-125.977,-35.645,-28.809,39.551
1641303839.882,-25.879,-34.668,-28.809,2.930
1641303839.886,92.773,-41.504,-21.484,-65.430
1641303839.903,88.379,-36.133,-20.020,-40.039
1641303839.907,-44.922,-32.715,-22.461,24.902
1641303839.911,-125.000,-33.691,-23.926,35.645
1641303839.915,-37.109,-32.715,-29.785,-5.371
1641303839.919,103.516,-35.156,-28.320,-71.289
1641303839.923,109.375,-39.551,-25.879,-67.383
1641303839.927,-23.926,-34.180,-18.555,1.953
1641303839.930,-121.094,-24.902,-21.484,31.250
1641303839.934,-61.035,-33.691,-39.551,1.465
1641303839.938,64.453,-47.363,-45.410,-51.758
1641303839.942,84.961,-41.016,-19.531,-60.547
1641303839.946,-39.062,-41.504,-10.254,-1.465
1641303839.947,-143.066,-47.363,-25.879,36.621
1641303839.951,-97.168,-52.734,-28.809,5.371
1641303839.955,49.316,-50.781,-24.414,-52.246
1641303839.959,98.145,-36.621,-22.949,-59.570
1641303839.963,-23.926,-35.645,-30.273,14.648
1641303839.967,-140.625,-45.898,-32.715,69.336
1641303839.971,-92.773,-40.527,-26.367,39.062
1641303839.974,53.223,-32.227,-18.555,-38.086
1641303839.978,101.074,-39.551,-25.879,-57.129
1641303839.982,-2.930,-51.758,-37.109,14.648
1641303839.986,-119.629,-45.410,-23.438,52.246
1641303839.990,-103.027,-47.852,-12.695,28.809
1641303839.995,30.762,-62.012,-23.438,-32.227
1641303839.999,110.840,-47.363,-31.738,-71.289
1641303840.003,34.180,-26.855,-27.832,-27.344
1641303840.007,-104.492,-29.297,-25.879,31.738
1641303840.011,-115.234,-41.992,-28.809,22.949
1641303840.015,12.695,-38.086,-28.809,-34.180
1641303840.019,99.121,-31.738,-29.785,-83.984
1641303840.022,39.551,-36.133,-32.227,-47.363
1641303840.026,-101.562,-39.551,-34.180,41.504
1641303840.030,-129.395,-32.715,-32.715,44.922
1641303840.034,2.930,-33.203,-32.715,-14.648
1641303840.038,108.887,-32.715,-34.668,-60.059
1641303840.037,56.152,-34.180,-30.762,-48.828
1641303840.041,-74.707,-36.621,-21.973,18.066
1641303840.045,-122.070,-32.715,-21.484,41.504
1641303840.049,-15.625,-38.574,-30.273,-2.441
1641303840.053,108.887,-40.039,-29.785,-53.711
1641303840.057,73.242,-30.762,-28.320,-40.527
1641303840.061,-61.035,-33.691,-23.438,25.391
1641303840.064,-110.840,-41.504,-25.879,51.270
1641303840.068,-22.949,-46.387,-32.715,18.555
1641303840.072,97.656,-38.086,-20.020,-45.898
1641303840.076,82.520,-33.691,-6.836,-49.316
1641303840.080,-55.176,-34.180,-9.766,16.602
1641303840.084,-128.906,-30.762,-15.137,35.156
1641303840.088,-41.992,-27.344,-17.578,-0.488
1641303840.092,87.402,-31.250,-28.320,-61.035
1641303840.096,87.891,-41.992,-49.316,-80.078
1641303840.100,-42.969,-36.621,-44.922,-18.066
1641303840.104,-135.254,-29.785,-35.645,27.832
1641303840.108,-76.660,-36.133,-39.551,-6.836
1641303840.111,41.992,-44.434,-41.992,-66.895
1641303840.115,79.590,-40.039,-34.668,-70.801
1641303840.119,-24.902,-37.109,-28.320,-11.230
1641303840.123,-144.043,-38.574,-27.344,25.879
1641303840.127,-108.398,-35.156,-31.250,4.883
1641303840.127,41.992,-38.574,-35.645,-57.129
1641303840.131,94.238,-41.016,-36.133,-91.797
1641303840.135,-18.555,-46.387,-39.062,-27.832
1641303840.139,-126.953,-49.316,-32.227,38.574
1641303840.143,-100.098,-43.945,-33.691,20.508
1641303840.147,31.738,-45.410,-39.551,-41.992
1641303840.151,105.469,-49.805,-29.785,-66.895
1641303840.154,9.766,-50.781,-36.133,-4.883
1641303840.158,-118.164,-38.574,-40.527,37.109
1641303840.162,-109.863,-29.785,-29.297,16.113
1641303840.166,8.789,-39.551,-31.738,-41.504
1641303840.170,88.867,-39.551,-39.551,-91.309
1641303840.174,18.555,-37.109,-39.551,-52.734
1641303840.178,-113.281,-44.922,-37.598,16.113
1641303840.182,-127.930,-49.805,-35.645,20.020
1641303840.186,2.441,-40.527,-26.367,-30.273
1641303840.190,106.934,-35.156,-27.344,-75.684
1641303840.194,43.457,-45.410,-33.203,-42.480
1641303840.198,-96.191,-56.152,-29.297,35.156
1641303840.201,-133.301,-44.922,-17.578,49.805
1641303840.205,-12.695,-34.668,-17.090,-5.371
1641303840.209,111.816,-34.180,-27.832,-61.523
1641303840.213,75.684,-38.086,-37.109,-37.598
1641303840.217,-78.125,-43.945,-33.203,20.508
1641303840.220,-137.695,-41.504,-20.996,35.156
1641303840.224,-30.273,-45.898,-23.926,-1.953
1641303840.228,95.215,-39.062,-19.531,-57.617
1641303840.232,86.914,-32.715,-16.602,-49.805
1641303840.236,-48.340,-39.062,-23.438,17.578
1641303840.240,-129.395,-35.645,-23.926,45.898
1641303840.244,-53.223,-35.156,-31.250,3.418
1641303840.247,87.402,-33.203,-27.832,-73.730
1641303840.251,104.004,-26.367,-23.926,-76.172
1641303840.255,-34.180,-26.855,-30.762,-0.488
1641303840.259,-119.141,-30.762,-21.973,41.016
1641303840.263,-58.594,-32.715,-24.414,1.953
1641303840.278,63.965,-32.227,-28.320,-58.594
1641303840.282,90.820,-36.621,-24.902,-56.641
1641303840.286,-20.020,-34.668,-24.414,8.789
1641303840.290,-120.605,-27.344,-20.020,45.898
1641303840.294,-76.172,-28.320,-17.578,25.391
1641303840.298,60.547,-37.598,-23.926,-31.738
1641303840.302,105.957,-33.691,-30.273,-68.359
1641303840.305,8.301,-30.273,-19.043,-12.695
1641303840.309,-115.234,-45.898,-19.043,31.738
1641303840.313,-105.957,-46.387,-32.227,16.602
1641303840.317,32.227,-36.621,-30.273,-41.016
1641303840.321,88.867,-39.551,-29.297,-76.660
1641303840.323,-7.812,-43.457,-37.109,-21.973
1641303840.327,-125.488,-45.898,-31.250,33.203
1641303840.331,-105.957,-42.480,-21.484,27.344
1641303840.335,34.668,-35.645,-22.461,-27.344
1641303840.339,98.145,-38.086,-24.902,-76.660
1641303840.343,9.277,-42.480,-30.762,-36.621
1641303840.347,-117.676,-39.551,-25.391,20.996
1641303840.350,-126.465,-41.016,-22.461,15.625
1641303840.354,0.977,-43.945,-29.297,-39.062
1641303840.358,95.215,-49.805,-32.715,-83.008
1641303840.362,47.852,-40.527,-24.414,-55.664
1641303840.366,-89.844,-40.039,-11.719,0.488
1641303840.370,-127.441,-44.922,-23.438,8.789
1641303840.374,-12.207,-49.316,-33.203,-40.039
1641303840.378,92.773,-50.293,-28.809,-101.562
1641303840.382,44.434,-32.227,-22.949,-77.148
1641303840.386,-99.121,-32.227,-20.508,12.695
1641303840.390,-148.926,-37.598,-20.508,35.645
1641303840.394,-41.504,-35.156,-20.508,-11.230
1641303840.397,80.566,-38.086,-29.785,-62.988
1641303840.401,47.852,-48.828,-35.645,-38.086
1641303840.405,-91.797,-47.363,-22.949,21.484
1641303840.409,-144.043,-37.109,-11.719,27.832
1641303840.413,-51.270,-35.156,-3.418,4.395
1641303840.413,72.754,-37.598,-17.090,-52.246
1641303840.417,70.312,-41.016,-29.297,-57.617
1641303840.421,-58.594,-47.363,-30.762,10.742
1641303840.425,-143.555,-46.875,-37.598,44.434
1641303840.429,-67.383,-35.645,-38.086,20.508
1641303840.433,72.754,-34.668,-34.668,-41.504
1641303840.437,98.633,-37.598,-30.762,-55.176
1641303840.440,-25.879,-41.016,-40.039,8.789
1641303840.444,-137.695,-47.363,-45.410,49.805
1641303840.448,-89.844,-41.016,-36.621,17.090
1641303840.452,52.246,-39.062,-36.133,-59.082
1641303840.456,100.586,-39.551,-38.574,-76.172
1641303840.459,-2.441,-33.691,-23.926,-6.836
1641303840.463,-112.793,-35.156,-17.090,37.598
1641303840.467,-85.449,-35.156,-26.855,16.602
1641303840.471,49.316,-35.645,-38.574,-41.992
1641303840.475,109.863,-32.227,-36.621,-81.055
1641303840.479,-1.465,-36.621,-35.156,-37.109
1641303840.483,-126.465,-39.062,-37.598,19.531
1641303840.486,-106.445,-49.316,-36.133,8.789
1641303840.490,28.809,-50.781,-34.180,-45.898
1641303840.494,102.539,-43.945,-33.203,-74.707
1641303840.498,21.484,-44.434,-27.344,-23.438
1641303840.502,-110.840,-41.992,-29.297,38.574
1641303840.503,-114.258,-41.992,-30.273,36.133
1641303840.507,22.461,-37.598,-24.414,-16.113
1641303840.511,107.422,-41.504,-29.297,-65.430
1641303840.515,41.504,-47.852,-29.785,-34.180
1641303840.519,-88.867,-42.969,-35.156,27.832
1641303840.523,-122.070,-36.621,-35.156,32.227
1641303840.527,-12.695,-34.668,-25.879,-13.672
1641303840.530,81.543,-51.270,-31.250,-58.594
1641303840.534,50.293,-46.875,-27.344,-41.992
1641303840.538,-81.543,-34.180,-23.438,15.137
1641303840.542,-127.441,-29.297,-25.391,37.109
1641303840.546,-16.113,-24.902,-20.996,-7.324
1641303840.549,105.957,-34.180,-27.344,-68.848
1641303840.553,81.055,-42.480,-38.574,-58.105
1641303840.557,-64.453,-34.180,-39.062,10.742
1641303840.561,-126.953,-30.762,-27.344,37.109
1641303840.565,-36.133,-38.574,-30.762,-10.742
1641303840.569,97.168,-42.969,-39.062,-65.918
1641303840.573,97.656,-48.828,-35.645,-50.293
1641303840.576,-45.898,-42.969,-30.273,23.926
1641303840.580,-118.164,-33.203,-25.879,41.992
1641303840.584,-39.551,-36.621,-29.785,-5.371
1641303840.588,87.402,-36.133,-31.250,-60.547
1641303840.592,102.539,-31.250,-46.387,-71.777
1641303840.593,-26.855,-32.715,-52.734,-17.090
1641303840.597,-114.746,-42.969,-39.551,20.508
1641303840.601,-50.293,-44.922,-36.621,-6.348
1641303840.605,83.984,-37.598,-28.809,-67.383
1641303840.609,115.723,-41.504,-19.531,-85.449
1641303840.613,-6.348,-49.805,-23.926,-7.324
1641303840.617,-125.977,-51.270,-32.715,49.316
1641303840.620,-92.773,-50.293,-21.973,19.531
1641303840.624,56.641,-48.340,-16.113,-41.504
1641303840.628,118.652,-51.270,-23.438,-55.664
1641303840.632,2.930,-49.316,-27.832,-9.766
1641303840.636,-120.605,-42.480,-24.414,24.414
1641303840.654,-98.145,-36.133,-20.508,12.695
1641303840.658,40.039,-37.598,-36.621,-46.875
1641303840.662,113.770,-45.410,-40.039,-87.891
1641303840.666,14.648,-38.086,-33.203,-39.551
1641303840.670,-129.883,-34.668,-38.086,27.832
1641303840.674,-135.254,-41.992,-40.039,24.414
1641303840.678,-3.418,-37.109,-38.574,-38.086
1641303840.681,80.566,-35.645,-35.156,-77.148
1641303840.685,19.043,-48.340,-33.691,-44.922
1641303840.689,-110.840,-51.270,-35.645,20.996
1641303840.693,-137.695,-42.969,-26.855,23.926
1641303840.697,-22.949,-39.551,-22.949,-41.016
1641303840.698,71.289,-47.363,-32.227,-93.262
1641303840.702,35.156,-55.176,-37.109,-58.594
1641303840.706,-83.496,-46.875,-25.391,25.879
1641303840.710,-130.371,-33.691,-16.602,40.039
1641303840.714,-33.203,-33.203,-26.367,-7.812
1641303840.718,86.426,-38.574,-35.645,-55.664
1641303840.722,61.035,-45.410,-29.297,-44.434
1641303840.725,-67.383,-49.805,-25.879,18.555
1641303840.729,-125.977,-47.363,-39.551,48.828
1641303840.733,-40.039,-49.316,-42.969,22.949
1641303840.737,96.191,-43.457,-27.832,-51.270
1641303840.741,89.355,-44.922,-28.809,-69.336
1641303840.745,-43.945,-36.621,-41.992,3.418
1641303840.749,-123.047,-29.297,-38.086,34.668
1641303840.753,-56.641,-34.180,-33.691,-3.418
1641303840.757,79.590,-37.598,-32.227,-61.035
1641303840.761,104.004,-33.203,-26.855,-66.406
1641303840.765,-31.738,-29.785,-23.438,3.418
1641303840.769,-127.441,-32.227,-10.254,44.434
1641303840.772,-65.430,-38.574,-17.090,9.277
1641303840.776,70.312,-45.898,-37.109,-46.387
1641303840.780,105.469,-48.340,-34.180,-68.359
1641303840.784,-15.137,-41.016,-25.879,-31.738
1641303840.788,-127.930,-43.457,-29.785,11.230
1641303840.788,-88.379,-46.875,-32.227,1.465
1641303840.792,55.664,-31.738,-22.461,-52.734
1641303840.796,107.910,-22.949,-26.367,-82.520
1641303840.800,-6.836,-27.832,-33.691,-34.180
1641303840.804,-126.953,-33.691,-32.227,20.020
1641303840.808,-98.145,-29.785,-31.738,7.812
1641303840.812,40.527,-32.715,-34.180,-41.504
1641303840.815,104.492,-39.062,-34.668,-66.406
1641303840.819,14.160,-43.945,-36.621,-12.207
1641303840.823,-103.516,-34.668,-31.250,44.434
1641303840.827,-106.445,-32.227,-31.738,23.926
1641303840.831,15.137,-41.016,-42.969,-32.227
1641303840.834,95.215,-40.039,-41.992,-75.684
1641303840.838,27.832,-36.621,-33.203,-40.527
1641303840.842,-114.258,-33.691,-29.785,18.066
1641303840.846,-145.508,-37.598,-35.645,25.391
1641303840.850,-11.719,-38.574,-29.785,-21.973
1641303840.854,83.496,-44.434,-33.203,-80.078
1641303840.858,38.574,-49.805,-39.551,-54.199
1641303840.861,-97.168,-56.152,-39.062,20.020
1641303840.865,-143.555,-45.898,-36.621,40.039
1641303840.869,-27.832,-29.297,-33.203,-14.160
1641303840.873,98.145,-34.668,-28.809,-67.871
1641303840.877,62.500,-41.504,-31.738,-45.410
1641303840.878,-83.496,-42.480,-31.738,15.625
1641303840.882,-137.207,-47.363,-29.785,36.621
1641303840.886,-42.969,-54.688,-34.668,-7.324
1641303840.890,79.102,-60.547,-34.668,-77.637
1641303840.894,59.570,-54.688,-33.203,-73.242
1641303840.898,-75.684,-41.992,-27.344,-10.742
1641303840.902,-144.043,-33.691,-26.367,14.648
1641303840.905,-68.359,-41.016,-42.480,0.488
1641303840.909,64.941,-41.016,-39.551,-59.570
1641303840.913,75.684,-36.621,-24.902,-71.289
1641303840.917,-57.617,-48.828,-25.391,8.789
1641303840.921,-147.949,-53.711,-24.414,43.457
1641303840.924,-83.496,-42.480,-17.578,2.930
1641303840.928,64.941,-41.992,-7.324,-52.246
1641303840.932,99.121,-59.082,-11.230,-62.012
1641303840.936,-25.391,-54.199,-13.672,-6.348
1641303840.940,-138.184,-39.062,-19.043,33.203
1641303840.944,-88.379,-40.527,-26.855,13.672
1641303840.948,58.105,-44.434,-31.250,-34.668
1641303840.951,104.980,-37.598,-25.391,-57.129
1641303840.955,-0.488,-30.762,-21.973,-19.043
1641303840.959,-120.117,-31.738,-21.973,29.785
1641303840.963,-103.516,-39.551,-20.508,24.414
1641303840.967,36.133,-44.434,-21.484,-50.293
1641303840.967,110.352,-55.176,-24.414,-87.402
1641303840.971,18.555,-60.059,-32.227,-29.297
1641303840.975,-119.629,-46.875,-34.180,28.320
1641303840.979,-112.305,-36.133,-20.508,22.461
1641303840.983,23.926,-32.227,-20.508,-36.621
1641303840.987,98.633,-39.551,-35.156,-70.312
1641303840.991,15.137,-51.270,-31.738,-17.578
1641303840.994,-116.211,-37.598,-17.090,27.344
1641303840.998,-136.719,-29.297,-19.531,8.789
1641303841.002,-25.879,-44.922,-32.715,-39.062
1641303841.006,81.055,-51.270,-36.621,-74.707
1641303841.010,33.203,-41.992,-30.273,-37.598
1641303841.028,-111.816,-39.551,-25.879,22.949
1641303841.032,-148.438,-50.781,-26.367,26.855
1641303841.036,-29.297,-55.176,-25.879,-27.344
1641303841.040,86.914,-54.199,-31.250,-92.773
1641303841.044,51.270,-50.293,-36.621,-71.289
1641303841.048,-95.703,-45.410,-31.738,6.836
1641303841.052,-141.602,-35.645,-19.043,27.344
1641303841.055,-32.227,-23.438,-16.602,-20.508
1641303841.059,83.984,-34.668,-25.879,-83.496
1641303841.063,62.012,-49.316,-30.762,-63.477
1641303841.067,-80.566,-45.410,-24.902,6.836
1641303841.071,-145.508,-37.598,-23.926,18.555
1641303841.073,-49.805,-39.062,-31.250,-19.043
1641303841.077,81.543,-37.109,-33.691,-73.730
1641303841.081,81.055,-34.180,-29.785,-74.707
1641303841.085,-50.781,-41.016,-24.414,-0.977
1641303841.089,-145.996,-42.969,-19.531,40.039
1641303841.093,-79.590,-44.922,-17.578,17.578
1641303841.097,51.270,-44.922,-22.949,-50.293
1641303841.100,78.613,-33.203,-24.414,-68.359
1641303841.104,-42.480,-32.715,-23.438,0.000
1641303841.108,-145.508,-47.852,-17.090,43.945
1641303841.112,-94.238,-45.410,-7.324,8.301
1641303841.116,39.551,-43.457,-11.230,-55.176
1641303841.119,85.938,-45.410,-16.113,-76.660
1641303841.123,-15.137,-32.715,-17.090,-19.043
1641303841.127,-129.883,-28.320,-15.625,35.645
1641303841.131,-99.609,-31.738,-16.113,26.855
1641303841.135,33.691,-42.969,-21.973,-39.551
1641303841.139,97.656,-46.387,-23.926,-83.008
1641303841.143,-2.441,-41.992,-24.902,-39.062
1641303841.146,-132.812,-39.062,-14.160,18.555
1641303841.150,-117.676,-35.156,-12.695,24.414
1641303841.154,19.531,-38.086,-26.855,-30.273
1641303841.158,98.633,-43.945,-26.367,-73.730
1641303841.162,17.578,-42.969,-17.090,-28.809
1641303841.162,-116.211,-49.316,-21.973,45.898
1641303841.166,-122.070,-42.969,-17.578,41.016
1641303841.170,15.625,-25.879,-16.602,-18.066
1641303841.174,123.535,-31.738,-24.414,-62.988
1641303841.178,56.641,-39.551,-25.391,-34.180
1641303841.182,-98.145,-38.086,-34.180,25.391
1641303841.186,-129.395,-41.016,-37.598,20.508
1641303841.189,-16.113,-48.340,-35.156,-33.691
1641303841.193,85.938,-52.734,-37.598,-71.289
1641303841.197,50.781,-41.016,-30.273,-46.875
1641303841.201,-84.473,-32.227,-16.602,19.531
1641303841.205,-138.184,-36.133,-9.277,39.062
1641303841.209,-35.156,-34.668,-10.254,-14.160
1641303841.213,85.449,-34.180,-16.113,-83.984
1641303841.217,67.383,-37.109,-20.508,-66.895
1641303841.221,-76.172,-44.434,-22.949,10.254
1641303841.225,-155.273,-42.480,-25.879,26.367
1641303841.229,-62.500,-35.156,-26.855,-24.414
1641303841.233,79.102,-32.715,-28.809,-83.496
1641303841.236,67.871,-39.551,-24.414,-69.336
1641303841.240,-62.500,-33.691,-7.812,2.930
1641303841.244,-128.418,-24.414,-1.953,30.273
1641303841.248,-53.711,-24.902,-14.160,-4.883
1641303841.252,79.590,-40.527,-29.297,-60.547
1641303841.253,108.398,-48.828,-33.203,-69.824
1641303841.257,-14.160,-28.809,-24.902,-10.254
1641303841.261,-118.652,-29.785,-13.184,46.875
1641303841.265,-64.453,-39.551,-19.531,29.785
1641303841.269,69.336,-35.645,-25.879,-44.434
1641303841.273,103.027,-41.016,-22.461,-70.801
1641303841.277,-4.395,-37.598,-12.695,-7.812
1641303841.280,-117.188,-36.621,-15.137,56.152
1641303841.284,-82.520,-35.645,-20.020,20.996
1641303841.288,49.805,-32.227,-25.391,-59.082
1641303841.292,106.934,-36.133,-29.297,-80.078
1641303841.296,11.719,-43.945,-25.391,-22.949
1641303841.301,-123.535,-45.898,-22.949,28.809
1641303841.305,-114.746,-35.645,-23.926,16.602
1641303841.309,25.879,-32.715,-29.785,-32.715
1641303841.313,104.492,-34.180,-27.832,-64.453
1641303841.317,20.996,-39.062,-21.973,-20.508
1641303841.321,-103.027,-44.434,-15.625,44.434
1641303841.325,-116.211,-56.152,-31.738,44.922
1641303841.328,9.766,-49.805,-41.016,-23.438
1641303841.332,124.023,-37.598,-28.809,-78.613
1641303841.336,63.965,-36.133,-28.809,-41.504
1641303841.340,-81.055,-35.645,-25.879,27.832
1641303841.344,-106.934,-33.203,-15.137,33.203
1641303841.343,12.695,-29.785,-16.113,-17.090
1641303841.347,111.328,-39.062,-26.367,-70.312
1641303841.351,57.617,-43.945,-36.133,-52.246
1641303841.355,-83.984,-41.504,-34.668,10.742
1641303841.359,-125.977,-45.898,-30.762,27.344
1641303841.363,-7.812,-52.734,-34.668,-13.184
1641303841.367,101.562,-50.293,-41.992,-63.965
1641303841.370,68.359,-40.039,-31.738,-47.852
1641303841.374,-61.523,-34.180,-26.367,3.418
1641303841.378,-128.906,-36.133,-29.785,30.273
1641303841.382,-41.992,-36.621,-34.668,13.184
1641303841.386,97.168,-24.902,-36.621,-58.594
1641303841.403,92.285,-31.738,-21.973,-62.500
1641303841.407,-48.828,-44.922,-20.996,5.371
1641303841.411,-122.559,-44.922,-23.926,29.297
1641303841.415,-50.293,-45.410,-20.508,-10.742
1641303841.419,67.871,-47.363,-25.879,-77.148
1641303841.423,86.914,-40.039,-32.227,-71.289
1641303841.427,-27.344,-36.133,-25.879,-6.348
1641303841.430,-133.301,-41.504,-17.090,24.902
1641303841.434,-72.754,-43.945,-20.020,2.930
1641303841.438,63.477,-44.922,-29.297,-46.387
1641303841.442,93.262,-41.992,-28.320,-71.777
1641303841.446,-11.230,-36.133,-24.414,-23.438
1641303841.447,-125.488,-42.480,-22.461,24.902
1641303841.451,-91.309,-42.480,-33.691,7.812
1641303841.455,53.223,-35.156,-35.645,-50.293
1641303841.459,104.980,-36.621,-20.020,-76.660
1641303841.463,1.953,-41.504,-26.855,-8.789
1641303841.467,-120.605,-47.363,-31.250,43.945
1641303841.471,-103.027,-48.340,-23.438,19.043
1641303841.474,38.574,-34.668,-18.066,-39.551
1641303841.478,104.004,-33.203,-23.926,-72.266
1641303841.482,1.953,-51.270,-35.156,-20.508
1641303841.486,-126.465,-45.898,-31.738,32.715
1641303841.490,-118.652,-37.598,-21.484,22.949
1641303841.495,9.766,-42.969,-26.367,-34.180
1641303841.499,95.215,-35.645,-32.715,-84.961
1641303841.503,30.273,-24.414,-22.461,-41.992
1641303841.507,-109.375,-34.180,-18.066,20.020
1641303841.511,-130.371,-42.480,-33.691,17.090
1641303841.515,-11.230,-40.039,-39.062,-21.973
1641303841.519,95.215,-40.527,-25.879,-73.242
1641303841.522,51.270,-42.480,-12.207,-55.664
1641303841.526,-98.145,-55.176,-21.484,23.926
1641303841.530,-143.555,-47.852,-25.391,34.180
1641303841.534,-34.180,-32.715,-20.020,-26.367
1641303841.538,83.984,-37.598,-24.414,-76.172
1641303841.538,50.781,-37.598,-21.484,-48.340
1641303841.542,-74.707,-39.062,-15.137,11.719
1641303841.546,-119.629,-37.109,-13.184,31.250
1641303841.550,-26.855,-41.992,-20.996,1.953
1641303841.554,97.656,-47.363,-29.297,-47.852
1641303841.558,85.938,-36.621,-28.809,-47.363
1641303841.562,-53.223,-36.133,-23.438,12.207
1641303841.565,-131.836,-40.527,-21.973,45.410
1641303841.569,-60.059,-47.852,-25.391,21.973
1641303841.573,83.008,-36.133,-23.438,-51.758
1641303841.577,104.492,-25.391,-20.508,-59.570
1641303841.581,-32.715,-36.133,-22.461,12.695
1641303841.585,-123.047,-34.180,-18.066,46.875
1641303841.589,-60.059,-30.273,-28.320,12.207
1641303841.593,72.754,-29.297,-35.645,-50.293
1641303841.597,104.980,-36.133,-27.344,-68.359
1641303841.601,-9.277,-36.621,-23.438,-7.324
1641303841.605,-115.234,-36.133,-22.461,36.133
1641303841.609,-66.895,-39.062,-20.508,15.137
1641303841.612,69.824,-44.922,-23.438,-31.250
1641303841.616,105.469,-51.270,-33.691,-53.223
1641303841.620,6.348,-42.969,-28.809,-11.719
1641303841.624,-114.746,-34.180,-21.484,36.621
1641303841.628,-97.168,-39.062,-21.484,16.602
1641303841.627,43.457,-42.480,-25.391,-42.969
1641303841.631,122.559,-37.109,-26.367,-76.172
1641303841.635,30.273,-38.086,-28.809,-37.598
1641303841.639,-112.305,-42.480,-22.949,17.578
1641303841.643,-109.863,-41.504,-23.926,14.648
1641303841.647,14.648,-48.828,-37.109,-32.227
1641303841.651,105.469,-48.340,-27.344,-71.777
1641303841.654,32.715,-49.316,-27.344,-30.762
1641303841.658,-108.398,-41.016,-22.949,33.203
1641303841.662,-109.863,-27.832,-2.930,29.785
1641303841.666,9.766,-31.250,-13.672,-24.902
1641303841.670,100.098,-34.180,-22.949,-79.102
1641303841.674,48.340,-41.992,-25.879,-61.523
1641303841.678,-85.938,-40.527,-23.926,9.277
1641303841.682,-125.000,-42.969,-22.949,30.762
1641303841.686,-19.043,-48.340,-25.879,-15.137
1641303841.690,94.727,-40.527,-22.461,-66.406
1641303841.694,62.988,-40.039,-25.391,-40.039
1641303841.698,-82.031,-48.828,-32.227,31.738
1641303841.701,-144.531,-47.852,-23.438,42.969
1641303841.705,-24.902,-42.480,-13.672,-24.414
1641303841.709,102.051,-44.922,-22.949,-72.266
1641303841.713,81.543,-49.805,-38.086,-50.781
1641303841.717,-58.105,-46.875,-25.391,-0.488
1641303841.717,-138.184,-40.039,-15.137,25.391
1641303841.721,-60.059,-46.387,-23.926,0.977
1641303841.725,76.660,-58.105,-21.484,-52.246
1641303841.729,93.750,-50.781,-17.578,-59.082
1641303841.733,-34.668,-38.574,-8.789,1.465
1641303841.737,-126.465,-41.992,-1.465,43.945
1641303841.741,-78.613,-47.852,-24.902,16.113
1641303841.744,54.688,-40.527,-37.109,-56.152
1641303841.748,94.727,-30.762,-25.391,-76.172
1641303841.752,-23.926,-31.250,-14.160,-2.930
1641303841.756,-137.207,-39.551,-15.137,40.039
1641303841.760,-86.914,-36.133,-21.484,5.371
1641303841.782,62.988,-33.691,-30.762,-50.781
1641303841.786,105.957,-47.363,-36.133,-73.242
1641303841.790,-1.953,-43.945,-35.156,-24.414
1641303841.794,-114.746,-33.203,-30.762,19.043
1641303841.798,-89.844,-36.133,-27.832,10.254
1641303841.802,47.852,-43.945,-27.832,-35.645
1641303841.806,110.352,-47.363,-31.738,-67.871
1641303841.809,14.648,-41.992,-35.156,-25.879
1641303841.813,-124.512,-42.480,-31.738,34.668
1641303841.817,-117.676,-57.129,-26.855,49.805
1641303841.821,32.715,-43.457,-28.320,-12.695
1641303841.825,119.141,-26.855,-28.320,-80.078
1641303841.822,32.715,-35.645,-19.043,-41.016
1641303841.826,-98.633,-39.062,-16.602,37.109
1641303841.830,-108.398,-35.645,-25.879,32.227
1641303841.834,11.230,-30.273,-35.156,-33.691
1641303841.838,117.676,-29.297,-34.180,-65.918
1641303841.842,54.199,-44.434,-35.645,-29.297
1641303841.846,-91.309,-37.598,-29.297,29.297
1641303841.849,-122.559,-25.391,-20.508,35.645
1641303841.853,-14.160,-29.297,-15.625,-9.766
1641303841.857,95.215,-40.039,-24.902,-67.383
1641303841.861,59.570,-36.621,-27.344,-58.105
1641303841.865,-82.031,-36.133,-20.996,17.090
1641303841.869,-136.719,-36.621,-20.508,39.062
1641303841.873,-37.109,-38.086,-22.461,-13.184
1641303841.877,96.191,-39.551,-21.973,-71.289
1641303841.881,80.078,-39.551,-10.742,-59.082
1641303841.885,-77.637,-49.316,-15.137,9.766
1641303841.889,-156.738,-43.457,-23.438,30.762
1641303841.893,-64.453,-37.109,-19.043,-15.625
1641303841.896,70.312,-39.551,-20.996,-71.289
1641303841.900,71.289,-55.664,-37.598,-53.223
1641303841.904,-59.082,-57.129,-40.039,12.207
1641303841.908,-143.555,-40.039,-29.297,25.391
1641303841.912,-79.102,-37.109,-24.414,-2.930
1641303841.912,58.594,-43.457,-33.691,-67.871
1641303841.916,85.449,-43.945,-35.156,-92.285
1641303841.920,-36.621,-37.598,-31.250,-24.902
1641303841.924,-138.184,-40.039,-26.367,25.391
1641303841.928,-93.750,-44.434,-19.531,-2.441
1641303841.932,42.480,-41.504,-31.250,-68.848
1641303841.936,87.891,-38.086,-36.133,-79.590
1641303841.939,-26.367,-41.504,-35.645,-18.066
1641303841.943,-147.461,-56.641,-44.922,29.297
1641303841.947,-114.258,-52.246,-34.668,11.719
1641303841.951,30.273,-39.062,-29.785,-57.129
1641303841.955,98.633,-41.016,-42.480,-75.684
1641303841.959,-2.441,-41.504,-34.668,-19.531
1641303841.963,-137.695,-39.551,-23.926,32.715
1641303841.967,-126.465,-35.645,-23.926,16.113
1641303841.971,20.996,-40.527,-29.785,-43.457
1641303841.975,96.680,-49.805,-29.785,-74.707
1641303841.979,-1.465,-45.898,-31.738,-35.645
1641303841.983,-131.836,-46.875,-21.484,6.348
1641303841.986,-144.043,-45.898,-21.973,22.461
1641303841.990,-12.207,-35.645,-29.297,-26.367
1641303841.994,94.238,-32.227,-26.855,-90.820
1641303841.998,38.086,-39.551,-20.996,-47.363
1641303842.002,-93.750,-39.062,-18.066,24.414
1641303842.002,-121.582,-24.902,-19.043,26.855
1641303842.006,-5.859,-26.367,-14.648,-32.227
1641303842.010,102.051,-40.039,-23.438,-76.660
1641303842.014,56.641,-40.527,-34.180,-42.480
1641303842.018,-87.891,-37.598,-31.250,24.414
1641303842.022,-131.836,-37.598,-24.414,34.668
1641303842.026,-13.672,-32.715,-22.461,0.000
1641303842.029,101.562,-37.109,-34.180,-46.387
1641303842.033,67.383,-32.227,-39.062,-55.176
1641303842.037,-63.965,-28.320,-36.133,-4.395
1641303842.041,-125.488,-31.250,-38.086,20.508
1641303842.045,-42.969,-38.086,-32.715,-12.695
1641303842.048,88.867,-37.598,-23.438,-64.453
1641303842.052,93.262,-30.762,-22.461,-60.059
1641303842.056,-49.805,-42.480,-37.109,5.859
1641303842.060,-140.137,-46.387,-34.668,36.621
1641303842.064,-65.430,-40.527,-33.691,-5.371
1641303842.068,68.359,-47.363,-41.016,-68.848
1641303842.072,87.402,-47.852,-34.180,-57.617
1641303842.075,-39.062,-35.645,-25.879,2.930
1641303842.079,-130.859,-25.391,-17.578,23.926
1641303842.083,-69.824,-32.227,-22.461,-1.465
1641303842.087,65.430,-39.551,-32.715,-60.547
1641303842.091,107.910,-33.203,-28.809,-85.449
1641303842.093,0.488,-35.156,-24.414,-23.926
1641303842.097,-125.977,-42.969,-28.320,24.414
1641303842.101,-90.820,-34.180,-23.438,9.277
1641303842.105,56.641,-32.227,-11.230,-43.457
1641303842.109,107.910,-44.434,-17.578,-81.543
1641303842.113,12.207,-45.898,-22.949,-28.320
1641303842.117,-111.328,-47.852,-21.973,44.434
1641303842.120,-100.098,-44.922,-13.672,35.645
1641303842.124,41.504,-35.645,-10.742,-41.504
1641303842.128,108.887,-37.598,-21.484,-78.125
1641303842.132,18.066,-40.527,-23.926,-32.715
1641303842.136,-112.793,-28.320,-28.320,14.160
1641303842.153,-121.094,-32.227,-29.785,19.043
1641303842.157,8.301,-44.922,-22.949,-32.227
1641303842.161,104.004,-37.598,-19.043,-84.961
1641303842.165,42.480,-31.738,-20.508,-47.852
1641303842.169,-97.656,-35.156,-24.902,17.090
1641303842.173,-139.160,-35.156,-29.785,23.926
1641303842.177,-19.043,-25.391,-24.902,-25.879
1641303842.180,95.703,-28.809,-21.973,-88.379
1641303842.184,44.922,-32.715,-32.227,-67.871
1641303842.188,-98.633,-43.945,-33.691,3.906
1641303842.192,-138.672,-38.574,-28.320,25.391
1641303842.196,-24.902,-29.785,-20.020,-20.020
1641303842.197,89.844,-42.969,-21.484,-74.707
1641303842.201,68.359,-41.992,-31.250,-65.430
1641303842.205,-59.570,-32.715,-19.043,-2.441
1641303842.209,-135.254,-30.762,-20.020,20.508
1641303842.213,-45.898,-33.203,-34.180,-13.672
1641303842.217,89.844,-32.227,-35.645,-63.477
1641303842.221,71.777,-31.250,-34.180,-65.430
1641303842.224,-63.477,-31.738,-25.879,-0.488
1641303842.228,-142.090,-35.645,-21.484,33.691
1641303842.232,-74.219,-44.922,-25.879,12.695
1641303842.236,61.035,-40.527,-23.438,-56.152
1641303842.240,82.031,-32.715,-21.973,-88.379
1641303842.244,-41.016,-35.645,-29.297,-11.230
1641303842.248,-140.137,-38.086,-30.273,51.270
1641303842.252,-79.590,-37.598,-19.531,12.695
1641303842.256,52.734,-44.922,-21.973,-60.547
1641303842.260,88.867,-49.316,-25.879,-68.359
1641303842.264,-23.926,-42.480,-18.066,-5.859
1641303842.268,-140.625,-37.598,-19.043,26.855
1641303842.271,-98.633,-37.598,-18.066,-2.441
1641303842.275,42.480,-42.969,-35.645,-53.711
1641303842.279,90.332,-37.598,-41.016,-80.566
1641303842.283,1.953,-33.203,-27.832,-31.738
1641303842.287,-118.164,-40.527,-30.762,21.973
1641303842.291,-107.422,-42.969,-33.691,12.207
1641303842.295,34.180,-39.062,-40.527,-50.781
1641303842.299,113.770,-31.738,-39.062,-86.914
1641303842.303,26.367,-38.086,-30.762,-39.551
1641303842.307,-125.977,-48.340,-37.598,19.531
1641303842.311,-127.930,-41.992,-30.762,29.297
1641303842.315,15.625,-38.086,-22.461,-18.066
1641303842.318,96.191,-38.086,-33.691,-60.059
1641303842.322,24.902,-48.828,-37.109,-20.508
1641303842.326,-109.375,-44.922,-29.297,22.949
1641303842.330,-137.695,-31.250,-23.926,25.391
1641303842.334,-14.648,-31.738,-29.785,-20.020
1641303842.335,89.844,-37.598,-38.574,-75.684
1641303842.339,33.691,-46.387,-43.945,-55.176
1641303842.343,-108.398,-45.410,-42.969,11.719
1641303842.347,-148.926,-39.062,-44.434,27.344
1641303842.351,-39.551,-41.016,-43.945,-18.555
1641303842.355,80.566,-43.945,-38.086,-72.266
1641303842.359,55.176,-39.062,-39.551,-58.105
1641303842.362,-83.984,-40.039,-31.738,17.090
1641303842.366,-145.020,-42.480,-26.855,41.992
1641303842.370,-42.969,-40.039,-39.551,-18.066
1641303842.374,91.309,-29.785,-41.504,-77.637
1641303842.378,71.777,-21.973,-32.715,-56.641
1641303842.377,-64.453,-27.344,-30.273,14.160
1641303842.381,-127.930,-32.227,-34.180,37.109
1641303842.385,-43.945,-32.227,-33.691,-0.488
1641303842.389,83.496,-32.227,-38.574,-62.012
1641303842.393,98.633,-30.273,-37.598,-58.105
1641303842.397,-30.762,-42.480,-35.645,16.602
1641303842.401,-133.789,-42.969,-35.156,42.969
1641303842.404,-76.660,-45.410,-46.875,15.137
1641303842.408,62.500,-43.945,-50.781,-43.457
1641303842.412,99.609,-33.691,-41.016,-71.777
1641303842.416,-20.020,-40.527,-41.016,-13.672
1641303842.420,-138.184,-41.992,-26.367,33.691
1641303842.424,-98.145,-35.645,-15.625,5.859
1641303842.428,44.922,-34.668,-27.344,-56.152
1641303842.432,95.215,-31.738,-34.668,-74.219
1641303842.436,1.465,-27.832,-31.738,-13.672
1641303842.440,-114.258,-29.297,-30.273,46.875
1641303842.444,-97.656,-37.598,-29.297,30.273
